TimeStamp,Delta_TP9,Delta_AF7,Delta_AF8,Delta_TP10,Theta_TP9,Theta_AF7,Theta_AF8,Theta_TP10,Alpha_TP9,Alpha_AF7,Alpha_AF8,Alpha_TP10,Beta_TP9,Beta_AF7,Beta_AF8,Beta_TP10,Gamma_TP9,Gamma_AF7,Gamma_AF8,Gamma_TP10,RAW_TP9,RAW_AF7,RAW_AF8,RAW_TP10,AUX_RIGHT,Accelerometer_X,Accelerometer_Y,Accelerometer_Z,Gyro_X,Gyro_Y,Gyro_Z,HeadBandOn,HSI_TP9,HSI_AF7,HSI_AF8,HSI_TP10,Battery,Elements
2019-04-29 12:39:19.302,-4.355318328809441,1.045130461499518,0.7626357328415952,1.547981543957648,-3.869971598193366,0.7074395137399994,0.5641311002524216,0.8634146943106075,-3.292069003305554,0.5388206048550541,0.4783263437601344,0.6306386396513696,-2.853480057490648,0.04276587335465646,0.0886013836205525,0.4824729994022185,-3.19017927648996,-0.485044388545115,-0.3514756866187826,0.2266542651658958,1602.051282051282,778.4615384615385,795.7875457875458,751.4652014652015,741.3919413919414,0.145813,0.126038,0.986450,-5.712280,-43.455200,-25.720215,1,4,1,1,1,75.000000
2019-04-29 12:39:19.315,,,,,,,,,,,,,,,,,,,,,,,,,,,,,,,,,,,,,,/muse/elements/blink
2019-04-29 12:39:19.848,,,,,,,,,,,,,,,,,,,,,,,,,,,,,,,,,,,,,,/muse/elements/blink
2019-04-29 12:39:20.316,-4.355318328809441,1.130363070665648,0.9872948344702372,1.547981543957648,-3.869971598193366,0.6051190240355662,0.5763023171043642,0.8634146943106075,-3.292069003305554,0.20245537508907,0.9924958648355444,0.6306386396513696,-2.853480057490648,-0.06999555115772897,-0.05504983186515557,0.4824729994022185,-3.19017927648996,-0.5124177833521907,-0.4678786217242391,0.2266542651658958,1626.227106227106,538.3150183150183,844.1391941391942,677.3260073260074,797.3992673992674,0.606567,0.132568,0.806458,-9.293671,-11.125488,-20.935059,1,4,1,1,2,75.000000
2019-04-29 12:39:21.302,-4.355318328809441,1.260840631148753,1.45686197896356,1.547981543957648,-3.869971598193366,0.6802309674017484,0.9323343840298648,0.8634146943106075,-3.292069003305554,0.06481273613424351,1.105272750510458,0.6306386396513696,-2.853480057490648,-0.1387185345142253,0.6222497195427104,0.4824729994022185,-3.19017927648996,-0.5925052247773678,0.2109123370099759,0.2266542651658958,1060.915750915751,680.5494505494506,794.1758241758242,803.4432234432235,1111.282051282051,0.519775,-0.299500,0.796021,3.484192,-9.891815,-4.665527,1,2,1,1,2,75.000000
2019-04-29 12:39:22.302,-4.355318328809441,1.260840631148753,1.336572626789339,1.5123013329332,-3.869971598193366,0.6802309674017484,0.2808204279425232,0.09846912197751818,-3.292069003305554,0.06481273613424351,0.9807097113624199,0.6068092783465535,-2.853480057490648,-0.1387185345142253,0.6330843510678702,0.4584660915830481,-3.19017927648996,-0.5925052247773678,0.3491183928445704,0.3664242759395441,1004.505494505495,831.2454212454213,807.0695970695971,799.4139194139194,656.7765567765568,0.586853,-0.257080,0.748108,1.465454,-16.770477,-4.418793,1,4,1,1,1,75.000000
2019-04-29 12:39:23.312,-4.355318328809441,1.260840631148753,0.8291033958670283,1.363326068971455,-3.869971598193366,0.6802309674017484,-0.02996826985874901,0.4241794526330166,-3.292069003305554,0.06481273613424351,0.4565283812622716,0.8343684234564479,-2.853480057490648,-0.1387185345142253,0.01354573630880456,0.688914482166162,-3.19017927648996,-0.5925052247773678,-0.6498879046489477,0.2589343299477715,1010.14652014652,954.5421245421246,807.0695970695971,838.901098901099,705.5311355311355,0.736511,-0.243225,0.599182,1.846771,-6.542206,-1.375732,1,2,1,1,1,75.000000
2019-04-29 12:39:24.306,-4.355318328809441,1.260840631148753,1.480548135130476,1.286772352619251,-3.869971598193366,0.6802309674017484,0.3688600811311877,0.7437689922506576,-3.292069003305554,0.06481273613424351,0.6186793644721561,0.7739054105675602,-2.853480057490648,-0.1387185345142253,0.1432781035041807,0.7910087121564389,-3.19017927648996,-0.5925052247773678,-0.5691532794648064,0.3163539272984315,1102.417582417582,806.2637362637363,832.4542124542124,747.4358974358975,603.1868131868132,0.752563,-0.184387,0.624451,11.581573,-4.897308,-19.604187,1,1,1,1,1,75.000000
2019-04-29 12:39:25.302,-4.355318328809441,1.260840631148753,1.944526988720895,2.013265499265498,-3.869971598193366,0.6802309674017484,0.8011834826806997,0.5984833861766983,-3.292069003305554,0.06481273613424351,0.6722912186278655,0.7324167760459013,-2.853480057490648,-0.1387185345142253,0.08436095706798628,0.7452368080682669,-3.19017927648996,-0.5925052247773678,-0.5784548880710016,0.3858211086260802,1250.695970695971,878.3882783882784,1139.487179487179,815.934065934066,647.5091575091575,0.849487,0.005127,0.492004,5.712280,-2.340240,-15.521851,1,2,1,1,1,75.000000
2019-04-29 12:39:26.302,-4.355318328809441,1.260840631148753,2.364064626538009,2.440954872811144,-3.869971598193366,0.6802309674017484,1.174277935765085,0.487162629486793,-3.292069003305554,0.06481273613424351,0.5953131628337665,0.7236826108324057,-2.853480057490648,-0.1387185345142253,0.02152885359947983,0.6357949431089798,-3.19017927648996,-0.5925052247773678,-0.6201722591812964,0.3976562519953759,893.2967032967033,798.6080586080586,904.5787545787546,816.7399267399268,1025.457875457875,0.847534,0.061035,0.505127,4.276733,-4.889832,-1.809387,1,1,1,1,1,75.000000
2019-04-29 12:39:27.315,-4.355318328809441,1.260840631148753,2.364064626538009,2.440954872811144,-3.869971598193366,0.6802309674017484,1.174277935765085,0.487162629486793,-3.292069003305554,0.06481273613424351,0.5953131628337665,0.7236826108324057,-2.853480057490648,-0.1387185345142253,0.02152885359947983,0.6357949431089798,-3.19017927648996,-0.5925052247773678,-0.6201722591812964,0.3976562519953759,1006.520146520147,686.1904761904763,935.6043956043957,839.7069597069598,730.1098901098901,0.829041,-0.029785,0.501404,24.561310,-7.259979,24.045410,1,1,1,1,1,75.000000
2019-04-29 12:39:28.302,-4.355318328809441,1.260840631148753,2.364064626538009,2.440954872811144,-3.869971598193366,0.6802309674017484,1.174277935765085,0.487162629486793,-3.292069003305554,0.06481273613424351,0.5953131628337665,0.7236826108324057,-2.853480057490648,-0.1387185345142253,0.02152885359947983,0.6357949431089798,-3.19017927648996,-0.5925052247773678,-0.6201722591812964,0.3976562519953759,824.3956043956044,779.2673992673992,827.6190476190476,789.3406593406594,674.5054945054945,0.837280,0.051758,0.508179,8.433838,-7.372131,0.687866,1,2,1,1,2,75.000000
2019-04-29 12:39:29.309,1.980036914827076,1.260840631148753,2.364064626538009,1.4451614069774,0.884857147257623,0.6802309674017484,1.174277935765085,0.8506952830411391,0.8140689501996584,0.06481273613424351,0.5953131628337665,0.6920429397915482,0.5974271230639711,-0.1387185345142253,0.02152885359947983,0.5521570751165746,0.4144092144444328,-0.5925052247773678,-0.6201722591812964,0.07884178199712583,0,1627.032967032967,978.3150183150184,713.5897435897436,695.8608058608058,0.229736,0.176270,0.931396,-10.445099,140.175171,-20.060272,1,1,1,1,1,75.000000
2019-04-29 12:39:29.362,,,,,,,,,,,,,,,,,,,,,,,,,,,,,,,,,,,,,,/muse/elements/blink
2019-04-29 12:39:29.782,,,,,,,,,,,,,,,,,,,,,,,,,,,,,,,,,,,,,,/muse/elements/blink
2019-04-29 12:39:29.980,,,,,,,,,,,,,,,,,,,,,,,,,,,,,,,,,,,,,,/muse/elements/blink
2019-04-29 12:39:30.199,,,,,,,,,,,,,,,,,,,,,,,,,,,,,,,,,,,,,,/muse/elements/blink
2019-04-29 12:39:30.304,1.980036914827076,1.260840631148753,2.364064626538009,1.655776316447472,0.884857147257623,0.6802309674017484,1.174277935765085,1.024223124925796,0.8140689501996584,0.06481273613424351,0.5953131628337665,0.6920429397915482,0.5974271230639711,-0.1387185345142253,0.02152885359947983,0.6569989760677385,0.4144092144444328,-0.5925052247773678,-0.6201722591812964,0.1743180223263043,0,1119.74358974359,751.0622710622711,1158.424908424908,692.2344322344322,-1.011536,-0.062012,0.068542,2.773895,55.754547,6.018829,1,4,2,1,1,75.000000
2019-04-29 12:39:30.484,,,,,,,,,,,,,,,,,,,,,,,,,,,,,,,,,,,,,,/muse/elements/blink
2019-04-29 12:39:30.660,,,,,,,,,,,,,,,,,,,,,,,,,,,,,,,,,,,,,,/muse/elements/jaw_clench
2019-04-29 12:39:31.282,,,,,,,,,,,,,,,,,,,,,,,,,,,,,,,,,,,,,,/muse/elements/blink
2019-04-29 12:39:31.302,1.980036914827076,1.260840631148753,1.256995717390806,1.655776316447472,0.884857147257623,0.6802309674017484,0.6555156553053254,1.024223124925796,0.8140689501996584,0.06481273613424351,0.6705457676419468,0.6920429397915482,0.5974271230639711,-0.1387185345142253,0.8604737423479769,0.6569989760677385,0.4144092144444328,-0.5925052247773678,0.9962064404450331,0.1743180223263043,0,894.1025641025641,823.5897435897436,599.5604395604396,626.1538461538462,-0.750732,-0.180542,0.599915,20.920105,-57.922821,-13.794708,1,4,1,1,1,75.000000
2019-04-29 12:39:32.164,,,,,,,,,,,,,,,,,,,,,,,,,,,,,,,,,,,,,,/muse/elements/blink
2019-04-29 12:39:32.309,1.980036914827076,1.260840631148753,1.615961506820129,1.655776316447472,0.884857147257623,0.6802309674017484,0.5409888048846706,1.024223124925796,0.8140689501996584,0.06481273613424351,0.669513917756998,0.6920429397915482,0.5974271230639711,-0.1387185345142253,0.6122196845385195,0.6569989760677385,0.4144092144444328,-0.5925052247773678,0.7027809589689783,0.1743180223263043,0,873.956043956044,733.7362637362637,648.7179487179487,751.0622710622711,-0.131042,0.007996,0.969055,16.336823,24.157562,54.984436,1,4,1,1,2,75.000000
2019-04-29 12:39:32.340,,,,,,,,,,,,,,,,,,,,,,,,,,,,,,,,,,,,,,/muse/elements/blink
2019-04-29 12:39:33.310,1.980036914827076,1.260840631148753,1.73790871560223,1.655776316447472,0.884857147257623,0.6802309674017484,0.361907635881537,1.024223124925796,0.8140689501996584,0.06481273613424351,0.4195506274364179,0.6920429397915482,0.5974271230639711,-0.1387185345142253,0.158761047541463,0.6569989760677385,0.4144092144444328,-0.5925052247773678,-0.4388027568326759,0.1743180223263043,1626.227106227106,882.014652014652,777.2527472527473,815.934065934066,772.8205128205128,-0.350159,0.124695,0.943420,4.007568,-7.850647,1.562653,1,2,2,1,2,75.000000
2019-04-29 12:39:34.302,1.980036914827076,1.260840631148753,1.086978788382255,1.655776316447472,0.884857147257623,0.6802309674017484,0.7213039234109846,1.024223124925796,0.8140689501996584,0.06481273613424351,0.6058334726316695,0.6920429397915482,0.5974271230639711,-0.1387185345142253,0.4409798143040147,0.6569989760677385,0.4144092144444328,-0.5925052247773678,0.4155468805957406,0.1743180223263043,545.1648351648352,830.8424908424909,806.2637362637363,853.0036630036631,805.8608058608058,-0.322449,0.131348,0.935303,11.132965,-25.772552,0.306549,1,2,1,1,2,75.000000
2019-04-29 12:39:34.733,,,,,,,,,,,,,,,,,,,,,,,,,,,,,,,,,,,,,,/muse/elements/blink
2019-04-29 12:39:35.199,,,,,,,,,,,,,,,,,,,,,,,,,,,,,,,,,,,,,,/muse/elements/blink
2019-04-29 12:39:35.302,1.980036914827076,1.580510552692504,0.7921568598004988,1.655776316447472,0.884857147257623,0.9661391481883181,0.6445451884535564,1.024223124925796,0.8140689501996584,0.7396708848013577,0.6937750713465547,0.6920429397915482,0.5974271230639711,0.3374957134072226,0.5625454204342912,0.6569989760677385,0.4144092144444328,0.3024569617414175,0.6711436508870221,0.1743180223263043,1626.227106227106,699.4871794871796,899.7435897435897,1375.201465201465,1187.435897435897,-0.023682,0.221558,0.974060,-9.443207,-8.022614,-3.461761,1,4,1,1,2,75.000000
2019-04-29 12:39:35.704,,,,,,,,,,,,,,,,,,,,,,,,,,,,,,,,,,,,,,/muse/elements/blink
2019-04-29 12:39:36.302,1.980036914827076,1.507174247827367,0.4940072053659444,1.655776316447472,0.884857147257623,0.5292583884939259,0.617098491093785,1.024223124925796,0.8140689501996584,0.4498013519613457,0.5570474013811494,0.6920429397915482,0.5974271230639711,0.3820213924712705,0.6155640533096411,0.6569989760677385,0.4144092144444328,0.2356953300000001,0.8735909984868859,0.1743180223263043,0,837.2893772893773,770,804.2490842490843,770,0.009949,0.211731,0.984192,-0.426178,-13.181610,52.532043,1,4,1,1,2,75.000000
2019-04-29 12:39:36.558,,,,,,,,,,,,,,,,,,,,,,,,,,,,,,,,,,,,,,/muse/elements/blink
2019-04-29 12:39:37.067,,,,,,,,,,,,,,,,,,,,,,,,,,,,,,,,,,,,,,/muse/elements/blink
2019-04-29 12:39:37.292,,,,,,,,,,,,,,,,,,,,,,,,,,,,,,,,,,,,,,/muse/elements/blink
2019-04-29 12:39:37.304,1.980036914827076,1.507174247827367,1.593090914595542,1.655776316447472,0.884857147257623,0.5292583884939259,1.012675920927393,1.024223124925796,0.8140689501996584,0.4498013519613457,0.3433252016866669,0.6920429397915482,0.5974271230639711,0.3820213924712705,0.1442491565511724,0.6569989760677385,0.4144092144444328,0.2356953300000001,-0.03198099044061304,0.1743180223263043,86.22710622710623,787.7289377289378,744.2124542124542,847.7655677655678,705.5311355311355,-0.091064,0.152222,0.975098,8.747864,-2.489777,1.592560,1,4,1,1,2,75.000000
2019-04-29 12:39:37.899,,,,,,,,,,,,,,,,,,,,,,,,,,,,,,,,,,,,,,/muse/elements/blink
2019-04-29 12:39:38.252,,,,,,,,,,,,,,,,,,,,,,,,,,,,,,,,,,,,,,/muse/elements/blink
2019-04-29 12:39:38.302,1.980036914827076,1.507174247827367,1.446101625610961,1.655776316447472,0.884857147257623,0.5292583884939259,0.9118152495003706,1.024223124925796,0.8140689501996584,0.4498013519613457,0.65841759968015,0.6920429397915482,0.5974271230639711,0.3820213924712705,0.2758366710920279,0.6569989760677385,0.4144092144444328,0.2356953300000001,0.2299718205483166,0.1743180223263043,0,797.8021978021978,781.2820512820513,917.0695970695971,867.1062271062272,0.211792,0.119629,0.971680,-2.482300,-3.603821,-4.388885,1,4,1,1,2,75.000000
2019-04-29 12:39:39.302,1.980036914827076,1.346081220022549,1.379424243646844,1.655776316447472,0.884857147257623,1.305852938042788,0.715486233599396,1.024223124925796,0.8140689501996584,0.9600931324251556,0.7615262170498631,0.6920429397915482,0.5974271230639711,0.1085046284336613,0.2819054950975575,0.6569989760677385,0.4144092144444328,0.008093232343556817,0.3004362301788753,0.1743180223263043,119.6703296703297,780.4761904761905,784.9084249084249,844.1391941391942,759.1208791208792,0.176941,0.062744,0.977295,-0.059814,1.794434,5.450592,1,4,1,1,2,75.000000
2019-04-29 12:39:39.446,,,,,,,,,,,,,,,,,,,,,,,,,,,,,,,,,,,,,,/muse/elements/blink
2019-04-29 12:39:40.302,1.980036914827076,0.7239802826764288,0.3652731393219934,1.655776316447472,0.884857147257623,0.1461232016963527,-0.1938715278060342,1.024223124925796,0.8140689501996584,0.2868733982615891,0.1925583256440157,0.6920429397915482,0.5974271230639711,0.07243969466383605,0.3084059677738993,0.6569989760677385,0.4144092144444328,-0.269769876498164,0.2525338274676303,0.1743180223263043,0,815.1282051282052,779.2673992673992,864.6886446886447,752.2710622710623,-0.270752,-0.034485,0.977722,2.983246,19.619141,4.209442,1,4,1,1,2,75.000000
2019-04-29 12:39:41.302,1.980036914827076,1.454265640931006,0.7050427646018116,1.575558787323962,0.884857147257623,0.8547000719808806,0.4424852295841963,0.4994813765911053,0.8140689501996584,0.5789685224236127,0.420653062394082,1.193223504519604,0.5974271230639711,0.1990835097257647,0.525697717759937,1.443893415430003,0.4144092144444328,-0.07146006495058399,0.3134943792284903,1.193373412142016,1.208791208791209,855.8241758241759,790.952380952381,785.3113553113553,804.6520146520147,-0.746094,0.025635,0.703064,7.245026,14.676971,1.786957,1,4,1,1,1,75.000000
2019-04-29 12:39:42.304,1.980036914827076,1.376696202969589,0.5868300660063646,1.297595870492,0.884857147257623,0.5338344309332076,0.3643227916374705,0.628852870956309,0.8140689501996584,0.5722643608052087,0.4341892610449536,1.169940424241723,0.5974271230639711,0.2068679358466446,0.5967735210447034,1.425584762702447,0.4144092144444328,0.01319998145334081,0.5665018423253454,1.12583419060985,98.31501831501832,814.3223443223443,799.4139194139194,810.6959706959707,1081.868131868132,-0.889709,0.054138,0.531738,2.482300,-4.269257,-7.686157,1,4,1,1,1,75.000000
2019-04-29 12:39:43.301,1.980036914827076,1.006370324890102,0.4279373129933725,1.188719663824469,0.884857147257623,0.4494163444651834,0.03991174915406419,0.8000522264330974,0.8140689501996584,0.5913459149908178,0.375974744383918,1.284396364401045,0.5974271230639711,0.2260922931957799,0.3645998172878736,1.429849610741893,0.4144092144444328,0.03038370644968734,0.4533172765516185,0.9319152653205851,956.959706959707,812.3076923076924,792.967032967033,767.985347985348,897.3260073260074,-0.528870,0.114990,0.864075,1.128998,-37.413940,7.140350,1,4,1,1,1,75.000000
2019-04-29 12:39:44.314,1.980036914827076,0.8700011318908981,0.4262856426338027,1.077130279874591,0.884857147257623,0.3472970835994411,-0.1857759037709193,0.6619945037620278,0.8140689501996584,0.5171782751445458,0.1754856358204966,1.060901852907834,0.5974271230639711,-0.1522602434537634,-0.02587796744108807,1.067060425404413,0.4144092144444328,-0.2918176025423603,-0.1150532811038745,0.6859736059416977,123.2967032967033,781.6849816849817,803.040293040293,782.4908424908425,751.8681318681319,-0.057251,0.068359,0.991150,2.572021,-22.901459,-1.592560,1,4,1,1,1,75.000000
2019-04-29 12:39:45.302,1.980036914827076,0.719727455405309,0.6406368189967834,0.2969115506890029,0.884857147257623,0.08943264476705533,0.05434027543593981,0.4206969911893684,0.8140689501996584,0.2469588281743077,0.3102697817947067,1.043433222631197,0.5974271230639711,-0.2520587616144254,-0.09261663099995816,0.9057686525361902,0.4144092144444328,-0.5380988621364977,-0.3001565324033147,0.6139427478095196,529.047619047619,776.8498168498169,788.1318681318681,779.2673992673992,904.5787545787546,-0.004028,0.048645,1.000000,2.033691,2.295380,-0.852356,1,4,1,1,1,75.000000
2019-04-29 12:39:46.303,1.980036914827076,0.3203268343389546,0.7762683898143689,0.3138360742801337,0.884857147257623,-0.1161997048391824,-0.06022485109254971,0.6555746567990136,0.8140689501996584,0.1603375841639336,0.4024768463953473,0.9322196737700646,0.5974271230639711,-0.150673671232171,0.07966904350232082,0.753541666898965,0.4144092144444328,-0.4339482245682645,-0.3096217318773741,0.4941396871203491,35.05494505494506,780.4761904761905,778.4615384615385,794.1758241758242,786.5201465201466,-0.292297,-0.025574,0.955139,-1.308441,18.976135,2.071075,1,4,1,1,1,75.000000
2019-04-29 12:39:47.302,1.980036914827076,0.1795504609500424,0.4582586235428602,0.2604031608858818,0.884857147257623,-0.121050259797174,0.06866950451770518,0.4879925495588755,0.8140689501996584,0.2481080109013363,0.5788409859829911,0.8215920302367273,0.5974271230639711,-0.2370264216024121,0.06081979472694676,0.8879365436162701,0.4144092144444328,-0.5274802146298866,-0.2366781045261457,0.8058358793330493,1475.531135531136,798.2051282051282,803.8461538461539,792.5641025641025,585.8608058608058,-0.526733,0.032715,0.848633,5.929108,24.897766,-1.525269,1,4,1,1,1,75.000000
2019-04-29 12:39:48.319,1.980036914827076,0.555354849331554,0.6665730332399865,0.7870923496229175,0.884857147257623,0.02402649535328644,0.5038118200029463,0.3346305850981366,0.8140689501996584,0.2440751570521997,0.9769872169097596,0.9066787063388332,0.5974271230639711,-0.01489826357540927,0.7251645307795062,1.001205674307051,0.4144092144444328,-0.1043286213878132,0.7583108208027115,0.7583896772773769,1279.304029304029,789.3406593406594,798.6080586080586,761.5384615384615,702.7106227106227,-0.815002,0.118774,0.604736,2.646790,-10.572205,3.095398,1,4,1,1,1,75.000000
2019-04-29 12:39:49.275,,,,,,,,,,,,,,,,,,,,,,,,,,,,,,,,,,,,,,/muse/elements/blink
2019-04-29 12:39:49.313,1.980036914827076,0.2691854861299599,0.6711948042406848,1.573392436728689,0.884857147257623,-0.02027987146311759,0.2152613889939319,0.7076241856855935,0.8140689501996584,0.3954217470498355,0.5429575934352026,0.7616163485605163,0.5974271230639711,0.1391471773612213,0.5508990336680034,0.8565251306502778,0.4144092144444328,-0.2228991541858336,0.5674005867601524,0.4641958291482783,1458.608058608059,800.6227106227107,804.6520146520147,832.8571428571429,782.4908424908425,-0.616577,0.113403,0.804871,2.392578,-35.746613,-9.899292,1,4,1,1,1,75.000000
2019-04-29 12:39:50.318,1.980036914827076,0.7509673290284528,0.8457738746199588,1.729551747951153,0.884857147257623,0.4326270971271913,0.7071983736211521,0.7990563326754309,0.8140689501996584,0.4789337449844054,0.5120701003320884,0.5691838583074559,0.5974271230639711,0.233872291429159,0.4679747402050521,0.939297764508724,0.4144092144444328,-0.3907826455165634,0.216187001409187,0.3132213518314889,1614.542124542125,792.1611721611722,801.8315018315019,825.6043956043957,749.4505494505495,-0.177856,0.057495,0.992676,2.594452,-25.196838,0.994415,1,4,1,1,1,75.000000
2019-04-29 12:39:51.047,,,,,,,,,,,,,,,,,,,,,,,,,,,,,,,,,,,,,,/muse/elements/blink
2019-04-29 12:39:51.313,1.980036914827076,0.8515635796012148,0.4702698539994747,1.346765502134864,0.884857147257623,0.588640919483649,0.04062202367765894,0.7792653563227431,0.8140689501996584,1.086561185059224,0.2554890583068941,1.279145900879086,0.5974271230639711,0.592257738725226,0.1308119775633063,0.9807416239431437,0.4144092144444328,-0.01686437432985246,-0.04244052732182775,0.7634392012145399,1626.227106227106,774.8351648351648,784.9084249084249,886.8498168498169,849.3772893772895,0.178772,0.092834,0.982117,0.014954,0.755157,-1.121521,1,4,1,1,1,75.000000
2019-04-29 12:39:52.309,1.980036914827076,1.299928562556886,1.116973793857366,1.607704391983756,0.884857147257623,0.3853333496737197,0.5431684826885371,0.9219451765532578,0.8140689501996584,1.07262497053288,0.2780390830947111,1.26891283585593,0.5974271230639711,0.5254088910799933,0.2696907089734938,1.084034668901076,0.4144092144444328,0.1517211905115755,0.4280473410202217,0.7860944964323012,0,771.2087912087912,785.7142857142858,788.9377289377289,785.7142857142858,-0.265869,0.192322,0.989685,10.243225,29.937134,1.413116,1,4,1,1,1,75.000000
2019-04-29 12:39:53.312,1.980036914827076,0.8444999302005973,1.044346308299569,1.520854869321064,0.884857147257623,-0.1663696476188704,0.3257675859046759,0.8217542642218559,0.8140689501996584,0.1345108927650448,0.2394976104348873,0.9584980783284598,0.5974271230639711,0.2305029780319246,0.6861581949334022,0.9337246068049923,0.4144092144444328,0.1493329464536643,0.5655463774534122,0.8707910809075112,611.2454212454213,817.1428571428571,816.3369963369963,818.7545787545788,595.5311355311355,-0.760071,0.124146,0.649231,9.017029,23.275299,-0.792542,1,4,1,1,1,75.000000
2019-04-29 12:39:54.302,1.980036914827076,0.9410035273586279,1.04972331767914,1.464589066147361,0.884857147257623,0.5705007154532412,0.3233380296942016,0.5450793263082599,0.8140689501996584,0.5046593176444384,0.2376795490340089,0.9671103227311304,0.5974271230639711,0.2338464065768837,0.6150277774896981,0.9589261145063911,0.4144092144444328,-0.04303091030245997,0.6037349418358734,0.853828046641842,36.26373626373626,803.040293040293,792.967032967033,788.1318681318681,786.5201465201466,-0.834717,0.164490,0.538574,5.809479,-8.987122,1.764526,1,4,1,1,1,75.000000
2019-04-29 12:39:55.302,1.980036914827076,0.6625726754387187,0.2382431033654422,1.243128612170787,0.884857147257623,0.2141209556415382,0.1156193895755526,0.5462257008412783,0.8140689501996584,0.4127113441489342,0.1038837535313996,0.9106918024180959,0.5974271230639711,0.05448132435074828,0.3329832418602058,0.843290417656915,0.4144092144444328,-0.380432233026701,0.3565246229602068,0.7424160631359156,31.02564102564103,799.0109890109891,806.2637362637363,808.6813186813187,789.3406593406594,-0.506775,0.098633,0.875427,-5.413208,-33.914795,4.411316,1,2,1,1,1,75.000000
2019-04-29 12:39:56.310,1.980036914827076,0.7803874434421056,0.2287957742701791,1.158539397019701,0.884857147257623,0.2067259901015199,-0.03490991137921164,0.6279587662673032,0.8140689501996584,-0.004921989526809944,0.1519841066448023,1.096024585001802,0.5974271230639711,-0.3002482622687692,0.2222432958266047,0.7897459991362541,0.4144092144444328,-0.7023124536580067,0.08469174367822363,0.6670702126011857,745.8241758241759,787.7289377289378,794.981684981685,792.967032967033,739.7802197802198,-0.175781,0.051514,0.974854,-0.261688,-23.619232,-1.375732,1,4,1,1,1,75.000000
2019-04-29 12:39:57.316,1.980036914827076,0.5766351597917424,0.5708505446600337,0.8872735477605551,0.884857147257623,0.09500146576648681,-0.1064311674914245,0.370942309999817,0.8140689501996584,0.009760047417136,0.1000045187059615,1.148802494878502,0.5974271230639711,-0.3533708066124578,0.2126048821125946,0.8468419196753287,0.4144092144444328,-0.6765807161960716,0.004394677324011817,0.5308784855508666,93.88278388278388,774.4322344322345,785.7142857142858,765.5677655677656,689.0109890109891,0.122681,0.091187,0.977173,2.960815,1.413116,-13.166656,1,4,1,1,1,75.000000
2019-04-29 12:39:58.302,1.980036914827076,0.7569346087708568,1.193572532752761,0.839482778630298,0.884857147257623,0.2850925530261781,-0.2330706050628358,0.5486692325635428,0.8140689501996584,0.1163064099097558,0.03931144403644906,1.138848207240794,0.5974271230639711,-0.2877253731672645,0.01898506597856538,0.8302309762425644,0.4144092144444328,-0.5211518954850609,-0.275228080323205,0.4157570790174649,1016.996336996337,777.6556776556777,793.7728937728938,807.4725274725275,624.9450549450549,-0.331787,-0.028137,0.938599,6.332855,21.278992,1.345825,1,4,1,1,1,75.000000
2019-04-29 12:39:59.309,1.980036914827076,0.4078919381153736,0.7030984311116972,0.7836074777949869,0.884857147257623,0.1660944998629229,-0.08203543716407986,0.6403554973146534,0.8140689501996584,0.06945965271995835,0.1984045254582507,1.146533949008635,0.5974271230639711,-0.2742051849090754,-0.007721161607315948,0.9342691800683115,0.4144092144444328,-0.311893051333792,-0.4406250974252003,0.4531750163408493,153.5164835164835,794.5787545787546,801.4285714285714,795.7875457875458,683.7728937728938,-0.699951,0.083740,0.729309,8.321686,11.260071,-3.544006,1,4,1,1,1,75.000000
2019-04-29 12:40:00.302,1.980036914827076,0.2707792085892365,0.6746628761628753,0.7710717050067553,0.884857147257623,-0.007287822274400665,0.0494239917195224,0.327171480072857,0.8140689501996584,0.2887371921425824,0.5651678290361989,0.6662651407179973,0.5974271230639711,-0.0763529983128818,0.5643408995493566,0.7838786169171537,0.4144092144444328,-0.4979584284951296,-0.06213290152359328,0.3550758037588415,413.8095238095238,799.0109890109891,805.4578754578755,817.5457875457876,823.1868131868132,-0.859436,0.089661,0.536743,4.329071,-7.603912,-0.493469,1,4,1,1,1,75.000000
2019-04-29 12:40:01.302,1.980036914827076,0.3013774346881773,0.3851014304318757,1.171434095928651,0.884857147257623,0.1456184985879881,0.1432591118172579,0.6259654633259346,0.8140689501996584,0.513072962803093,0.7058074221639962,1.273473722696705,0.5974271230639711,-0.16326286406097,0.5654809945748962,0.7749647313651808,0.4144092144444328,-0.6510112650627172,-0.0497701483797225,0.4852163089761707,1625.824175824176,828.8278388278388,803.040293040293,823.992673992674,790.5494505494506,-0.708252,0.154236,0.730896,-12.015228,-32.187653,18.535004,1,4,1,1,1,75.000000
2019-04-29 12:40:01.344,,,,,,,,,,,,,,,,,,,,,,,,,,,,,,,,,,,,,,/muse/elements/blink
2019-04-29 12:40:02.302,1.980036914827076,0.9896835378353702,0.4812682180109091,0.9059785531793035,0.884857147257623,0.2922346848381049,0.5038961369374518,0.9434961064525856,0.8140689501996584,0.5714336728236774,0.6199425322561353,1.445715971663888,0.5974271230639711,-0.159709024397838,0.02978686138200299,0.9590356859105827,0.4144092144444328,-0.6939429562083987,-0.5257008386485023,0.6366137569520296,1603.260073260073,792.5641025641025,798.2051282051282,805.4578754578755,772.014652014652,-0.271606,0.091187,0.984314,-0.710297,-27.163239,-14.505005,1,4,1,1,1,75.000000
2019-04-29 12:40:03.302,1.980036914827076,0.9858177585310892,0.6282489391340873,0.8250849266728892,0.884857147257623,0.3049128172831418,0.3585963659589878,1.026099566655815,0.8140689501996584,0.4194012182183081,0.5021571514196251,1.480713786901254,0.5974271230639711,-0.08456273876404684,-0.04205188301596646,1.015441228338107,0.4144092144444328,-0.5527609290018269,-0.4503088148190749,0.5198238682770048,1099.194139194139,771.6117216117216,791.7582417582418,785.3113553113553,1087.912087912088,-0.005493,0.059875,0.999573,9.084320,-6.542206,0.396271,1,4,1,1,1,75.000000
2019-04-29 12:40:04.307,1.980036914827076,0.7521527611102412,0.3591685804405802,0.882783788023644,0.884857147257623,-0.002314935988580299,0.1269778599846927,0.6941629104599414,0.8140689501996584,0.4054869645525057,0.4264273608482876,1.583324612663571,0.5974271230639711,-0.1135281732884957,-0.137503069925025,0.906645750614567,0.4144092144444328,-0.5655275151307081,-0.419967336650394,0.4704642365580169,831.6483516483516,772.8205128205128,775.2380952380953,859.4505494505495,699.0842490842491,-0.403015,0.025146,0.927856,2.497253,11.663818,-4.575806,1,4,1,1,1,75.000000
2019-04-29 12:40:04.316,,,,,,,,,,,,,,,,,,,,,,,,,,,,,,,,,,,,,,/muse/elements/blink
2019-04-29 12:40:05.302,1.980036914827076,0.5082843280872177,0.646595365347152,1.146434055652763,0.884857147257623,-0.1656528183375615,0.198808805484666,0.243208500843545,0.8140689501996584,0.2706796431031055,0.5840038541051839,1.215420588571393,0.5974271230639711,-0.02787918423921478,0.06086184158396913,0.8821037057539654,0.4144092144444328,-0.5426043744778981,-0.2172716078047794,0.569887268595513,1300.25641025641,804.2490842490843,790.952380952381,792.5641025641025,722.8571428571429,-0.674255,0.050842,0.747253,4.097290,5.936584,-1.607513,1,4,1,1,1,75.000000
2019-04-29 12:40:06.302,1.980036914827076,0.3928638787476298,0.5689205809416918,0.9346232958519807,0.884857147257623,-0.09993390637836358,-0.03025293854892979,0.208200125571903,0.8140689501996584,0.1312265110014937,0.3030997775214951,0.555326954917677,0.5974271230639711,-0.01244450020827758,0.1622897989226084,0.6714677435148529,0.4144092144444328,-0.3006772080086176,0.06229371689399082,0.4316172524946517,1235.787545787546,790.952380952381,792.967032967033,790.952380952381,717.6190476190476,-0.821960,-0.034973,0.599426,3.229980,-1.779480,-1.271057,1,4,1,1,1,75.000000
2019-04-29 12:40:07.229,,,,,,,,,,,,,,,,,,,,,,,,,,,,,,,,,,,,,,/muse/elements/blink
2019-04-29 12:40:07.306,1.980036914827076,0.002339778744198981,0.3142498883310773,0.6820879875002315,0.884857147257623,-0.1771436910813916,-0.04555206219999636,0.1907077358501963,0.8140689501996584,0.3298484330754781,0.4253072572477765,0.7102146826272161,0.5974271230639711,-0.1011984052356258,0.1258337141225193,0.6737608647448953,0.4144092144444328,-0.3921405894558394,-0.1781806685803606,0.4996899443757837,1257.948717948718,801.8315018315019,797.3992673992674,810.2930402930403,747.032967032967,-0.520691,0.010132,0.861633,1.181335,-45.571136,-4.381409,1,4,1,1,1,75.000000
2019-04-29 12:40:08.302,1.980036914827076,0.3753110868331591,0.8930084428408011,0.8793732389978516,0.884857147257623,-0.07922494786307858,0.4820254406048099,0.1471592109300857,0.8140689501996584,0.2024265086856591,0.5804359259560767,0.6766242704936658,0.5974271230639711,-0.04502650543264089,0.03763546734853071,0.9020166877802855,0.4144092144444328,-0.570817071192632,-0.3624566227089683,0.6377344181520979,1007.728937728938,790.952380952381,800.6227106227107,813.5164835164835,705.1282051282052,-0.148560,0.026123,0.993286,4.291687,-31.439972,-8.740387,1,4,1,1,1,75.000000
2019-04-29 12:40:09.305,1.980036914827076,0.6007899300997083,0.9444271106324574,1.381093049059182,0.884857147257623,0.2704389149831175,0.1215907591665568,0.7326251747836828,0.8140689501996584,0.1999153086111846,0.5250032144684914,0.9356533434674092,0.5974271230639711,-0.1139222570833379,0.06881923799058834,0.8279617169140175,0.4144092144444328,-0.4994606876018257,-0.3730797614028575,0.350835632620234,176.0805860805861,770,785.7142857142858,800.2197802197802,535.0915750915751,0.177307,0.068542,0.979492,3.970184,-8.254395,-1.069183,1,4,1,1,1,75.000000
2019-04-29 12:40:10.302,1.980036914827076,0.6686128564966033,1.264819893608211,1.35157887737074,0.884857147257623,0.3308508929567479,0.06971742707768752,0.8420193211396808,0.8140689501996584,0.1338964438784603,0.5220189135991311,0.9458577837808074,0.5974271230639711,-0.170877947498088,0.1575429666721814,0.6565529084118432,0.4144092144444328,-0.5536039393865685,-0.1944426459032559,0.235612190345508,1494.468864468864,784.9084249084249,793.7728937728938,815.1282051282052,606.4102564102565,-0.124023,0.001831,1.006470,8.022614,24.359436,3.895416,1,4,1,1,1,75.000000
2019-04-29 12:40:11.315,1.980036914827076,0.5843043255698539,0.9196092514973311,1.052337283020917,0.884857147257623,0.1756728712288525,0.1449212462204383,1.055623477087316,0.8140689501996584,0.3431540560607447,0.4087569812641114,1.34264955381931,0.5974271230639711,-0.05340846717611784,0.1680271581657464,1.020159079336364,0.4144092144444328,-0.4731617912766072,0.1462472079831224,0.5852771994304585,663.6263736263736,795.7875457875458,791.3553113553114,817.948717948718,747.032967032967,-0.583557,0.137878,0.798950,9.712372,19.544373,4.897308,1,4,1,1,1,75.000000
2019-04-29 12:40:12.302,1.980036914827076,0.5787317803940414,0.8429110619510699,0.8434761517124828,0.884857147257623,0.03970844119042106,0.1439719502902938,0.847345475955039,0.8140689501996584,0.3352351792684459,0.3330600869184863,1.318046776516709,0.5974271230639711,-0.04765966013032281,0.03684806020903936,0.9458694567832443,0.4144092144444328,-0.2711504442075268,0.06747908328541502,0.6053703814248028,1241.831501831502,801.4285714285714,799.0109890109891,789.3406593406594,812.3076923076924,-0.773438,0.248474,0.595276,7.267456,-0.299072,1.054230,1,4,1,1,1,75.000000
2019-04-29 12:40:13.302,1.980036914827076,0.2757410149096688,0.0002600814231372897,0.5580918035535192,0.884857147257623,-0.06333915859120881,-0.005754606659903396,0.5930709730390913,0.8140689501996584,0.07291958540792795,0.2553058988714891,0.6890484720667833,0.5974271230639711,-0.1574803394467621,-0.03223958463036376,0.709568725842325,0.4144092144444328,-0.3017161939070503,0.006872016619414694,0.3250330126899697,1351.428571428572,803.040293040293,805.0549450549451,778.4615384615385,506.0805860805861,-0.605408,0.227966,0.779541,-6.908569,-35.312958,3.544006,1,4,1,1,1,75.000000
2019-04-29 12:40:13.810,,,,,,,,,,,,,,,,,,,,,,,,,,,,,,,,,,,,,,/muse/elements/blink
2019-04-29 12:40:14.302,1.980036914827076,0.5487301515556382,0.05483079160102553,0.6257218161309871,0.884857147257623,0.1531788589119462,-0.05035052748098724,0.4773033273449291,0.8140689501996584,0.1066753456801713,0.2161311203763537,0.5259799845778479,0.5974271230639711,-0.1995151966666328,-0.0890717705555799,0.6712926046338081,0.4144092144444328,-0.4414673918687612,-0.1929081446118827,0.1568537578526081,904.981684981685,792.1611721611722,799.4139194139194,805.4578754578755,727.6923076923077,-0.138062,0.145996,0.979492,6.332855,-11.865692,-2.362671,1,4,1,1,1,75.000000
2019-04-29 12:40:15.302,1.980036914827076,0.652005780004026,0.4314707755407111,0.9159535811530604,0.884857147257623,0.1197601451903748,-0.04160046646197581,0.4191749260599746,0.8140689501996584,0.1317009335778814,0.02862928189538158,0.6474144654870785,0.5974271230639711,-0.3012250579880052,-0.04672391178944817,0.7946178264823033,0.4144092144444328,-0.5572293353726798,-0.3772793137005873,0.2626399588856327,149.4871794871795,776.0439560439561,776.8498168498169,809.4871794871796,1006.923076923077,0.091614,0.237610,0.982544,8.792725,-14.557343,-0.044861,1,4,1,1,1,75.000000
2019-04-29 12:40:16.302,1.980036914827076,0.6246358320113942,1.113931963516497,1.163719259308657,0.884857147257623,0.1068059387052068,0.00186867315123487,0.5549684356712592,0.8140689501996584,0.2242143235616509,-0.1544156033693861,0.9073803438927516,0.5974271230639711,-0.1924887229812932,0.005057406602811927,0.774689306840335,0.4144092144444328,-0.740602461819779,-0.5105742013688457,0.2675229316113664,1626.227106227106,783.2967032967033,797.3992673992674,819.1575091575091,614.4688644688645,-0.163452,0.347412,0.927185,6.258087,17.346191,-11.985321,1,4,1,1,1,75.000000
2019-04-29 12:40:17.311,1.980036914827076,0.5557777989755397,0.3935890163169354,0.9969357597999522,0.884857147257623,-0.2389884006351173,0.02062504937430677,0.5243996769450894,0.8140689501996584,0.2487323496406832,-0.06556405899970566,0.9427961650281196,0.5974271230639711,0.001762654614423432,-0.08154795581232779,0.7671829492335971,0.4144092144444328,-0.2688141356112748,-0.2258981745117923,0.4912860519125571,0,801.025641025641,821.978021978022,812.7106227106227,680.952380952381,-0.547852,0.252563,0.808228,-7.088013,15.723724,-22.325745,1,2,1,1,1,75.000000
2019-04-29 12:40:18.306,1.980036914827076,0.3478872699084125,0.7358796608658086,0.7925510136774572,0.884857147257623,-0.4002223168584857,0.1208454842096705,0.3043358400683778,0.8140689501996584,0.1119089101729074,0.2489605323200702,0.8584958373084346,0.5974271230639711,0.2048414474696321,0.2586522317473741,0.7278396998236638,0.4144092144444328,0.07249904720046284,0.06014631974941466,0.3703944292456579,0,801.8315018315019,803.4432234432235,797.3992673992674,691.4285714285714,-0.747681,0.030884,0.679138,-4.994507,-1.570129,4.882355,1,4,1,1,1,75.000000
2019-04-29 12:40:19.301,1.980036914827076,-0.05093318474275001,0.5988252496202144,1.172879603273117,0.884857147257623,-0.2953906406570925,0.09213370902606675,0.2285795345917241,0.8140689501996584,0.2944615402299368,0.3298524386553579,0.8315043352819579,0.5974271230639711,0.1628955868280955,0.3443235003529183,0.8762798235961426,0.4144092144444328,0.001003349146376643,0.08294361495489344,0.3895434027986492,1177.362637362637,809.8901098901099,803.8461538461539,782.0879120879121,729.7069597069598,-0.660950,0.066101,0.765930,3.207550,-21.705170,1.906586,1,4,1,1,1,75.000000
2019-04-29 12:40:20.302,1.980036914827076,-0.1618897785264159,0.4537547695703677,1.4116105069799,0.884857147257623,-0.2369002213072031,-0.2930834022989907,0.5171090019794203,0.8140689501996584,0.2324437038980443,0.3123751078673534,0.9477087850314944,0.5974271230639711,-0.2741920365956138,-0.02915157548400138,1.030748126396406,0.4144092144444328,-0.4467010047513102,-0.2191354453030481,0.6232559308728746,128.5347985347985,792.5641025641025,799.4139194139194,791.3553113553114,782.893772893773,-0.277466,0.122620,0.961731,4.949646,-17.757416,-2.624359,1,4,1,1,1,75.000000
2019-04-29 12:40:21.302,1.980036914827076,0.03893884589777624,0.4576887534497266,1.461055079838843,0.884857147257623,-0.183662234723325,-0.1625516392727176,0.9185270695783386,0.8140689501996584,0.1585537534623445,0.2960110990353168,1.115269247173176,0.5974271230639711,-0.2581113443008287,-0.03418852233111164,0.9226923674896688,0.4144092144444328,-0.5303513929519427,-0.3448158243150982,0.782221085085304,817.948717948718,795.3846153846154,801.4285714285714,766.3736263736264,1052.857142857143,-0.102112,0.159180,0.984619,6.684265,-15.058289,-4.882355,1,4,1,1,1,75.000000
2019-04-29 12:40:22.302,1.980036914827076,0.1978529791088497,1.015318375191291,1.409024863671705,0.884857147257623,-0.3595900203407996,-0.09663580727492828,1.020145912120813,0.8140689501996584,0.1288059410916886,0.1902168619444083,1.159439948318718,0.5974271230639711,-0.2449038448019681,-0.1258402678795826,0.985964509460848,0.4144092144444328,-0.2209396074548217,-0.2673211988673462,0.9186390152279457,487.1428571428572,788.1318681318681,799.8168498168499,841.3186813186813,860.2564102564103,-0.234802,0.191101,0.953308,4.187012,15.761108,-3.028107,1,4,1,1,1,75.000000
2019-04-29 12:40:23.313,1.980036914827076,0.3268633334865955,1.119831149689396,1.331096445481062,0.884857147257623,-0.1919732021188107,-0.1073954528011338,0.802982276572168,0.8140689501996584,0.1154386154148651,0.2198877663585523,1.190234679289869,0.5974271230639711,-0.06756993203791782,0.01637566529426418,1.184114447916337,0.4144092144444328,-0.165775541254972,-0.08826394951195317,1.215048370168143,354.981684981685,805.4578754578755,811.5018315018315,822.7838827838829,726.4835164835165,-0.673096,0.240845,0.729187,6.093597,16.119995,-7.416992,1,4,1,1,1,75.000000
2019-04-29 12:40:24.157,,,,,,,,,,,,,,,,,,,,,,,,,,,,,,,,,,,,,,/muse/elements/jaw_clench
2019-04-29 12:40:24.303,,,,,,,,,,,,,,,,,,,,,,,,,,,,,,,,,,,,,,/muse/elements/blink
2019-04-29 12:40:24.316,1.980036914827076,0.5661439991478333,0.6052593321206667,1.14070883259258,0.884857147257623,0.1684732354121176,0.06936881769554419,0.5375805796242216,0.8140689501996584,-0.08105003903973268,0.3651353532334385,0.9463925119355073,0.5974271230639711,0.2981208763296377,0.163631827653503,1.265524995824343,0.4144092144444328,0.1903510971280875,-0.1262734321463716,1.231468802800863,183.7362637362637,815.1282051282052,789.7435897435897,769.5970695970697,826.007326007326,-0.790344,-0.029175,0.612183,2.280426,17.136841,-2.459869,1,4,1,1,1,75.000000
2019-04-29 12:40:25.302,1.980036914827076,0.7530880485477124,0.7422005669627968,1.307212540425396,0.884857147257623,0.3494294668143532,0.344616863503156,0.449294253709283,0.8140689501996584,0.03075409981996243,0.2930022004349052,0.9282772629886299,0.5974271230639711,0.7359929074100604,0.6863126078870631,1.31144682404435,0.4144092144444328,0.7036252923469389,0.3810487638481453,1.195759000167529,416.2271062271062,806.2637362637363,801.4285714285714,784.5054945054945,1007.728937728938,-0.670959,0.124146,0.750977,3.058014,-39.455109,11.918030,1,4,1,1,1,75.000000
2019-04-29 12:40:26.302,1.980036914827076,0.3377659867033641,0.5563318801028233,1.368416343739987,0.884857147257623,0.1155382295243877,0.234792357977653,0.6242903177923416,0.8140689501996584,0.2886275428975009,0.04158138097565195,0.6919669189515547,0.5974271230639711,0.2132833424068674,0.5615710881197754,0.9878289305969969,0.4144092144444328,0.1443757503098199,0.03530289968704175,0.6913989067738393,1318.791208791209,787.3260073260074,796.996336996337,778.0586080586081,630.989010989011,-0.090210,0.041626,1.003967,4.695435,-21.039734,-5.996399,1,4,1,1,1,75.000000
2019-04-29 12:40:27.318,1.980036914827076,0.1842942552714761,0.5342918967442033,1.314131570300723,0.884857147257623,0.06692021602003984,0.07253103085850206,0.7205099107779204,0.8140689501996584,0.3638836632555399,-0.04262483088440354,0.9816514410233302,0.5974271230639711,-0.1713040817728244,-0.1277457546907004,0.9561131844797389,0.4144092144444328,-0.5742245890677913,-0.5722993253925539,0.7078210476792092,684.5787545787546,782.4908424908425,777.2527472527473,798.2051282051282,689.4139194139194,0.114746,0.027893,0.993469,1.779480,-13.099365,-5.420685,1,4,1,1,1,75.000000
2019-04-29 12:40:28.302,1.980036914827076,0.5471407412825521,0.8065715481458344,0.9264684989440313,0.884857147257623,0.05851938245882596,0.02262926632302613,0.4483716560060401,0.8140689501996584,0.08417013386175125,0.07638752934477357,1.158429270601567,0.5974271230639711,-0.1115861085854768,-0.1664067797852268,0.8119303139139876,0.4144092144444328,-0.4892408321955877,-0.5379462429876065,0.5449093150437725,1604.871794871795,770.8058608058608,806.6666666666667,794.981684981685,566.1172161172161,-0.036865,-0.009277,0.976929,3.312225,12.463837,5.719757,1,4,1,1,1,75.000000
2019-04-29 12:40:29.315,1.980036914827076,0.4218825451650091,0.3474120239918092,0.7694348220850014,0.884857147257623,0.0299205254827852,0.123655599699264,0.2337309772832363,0.8140689501996584,0.1772993521447524,0.1225826769318918,0.9280262123273353,0.5974271230639711,-0.1605263004966707,-0.2809820859877507,0.8599560972855468,0.4144092144444328,-0.5891123081723774,-0.6227790102707025,0.5508995105499984,206.3003663003663,799.0109890109891,801.025641025641,801.025641025641,538.3150183150183,-0.513489,0.077332,0.857910,0.807495,11.686249,-2.086029,1,4,1,1,1,75.000000
2019-04-29 12:40:30.306,1.980036914827076,0.8007788454957105,0.4163720276926833,1.111303851355507,0.884857147257623,0.1035051255573423,0.3948457773531683,0.6347601077184252,0.8140689501996584,0.3697615320556232,0.5744209225936325,1.135977222751011,0.5974271230639711,-0.2022742795692838,-0.2000776431906397,1.033360350114298,0.4144092144444328,-0.5760217537153809,-0.6776249500319659,0.4159874501465609,72.12454212454213,805.4578754578755,801.8315018315019,821.5750915750916,749.047619047619,-0.813965,0.000427,0.620300,7.028198,4.149628,-10.265656,1,4,1,1,1,75.000000
2019-04-29 12:40:31.302,1.980036914827076,0.9484020074559869,0.5283009455070927,1.340623089730773,0.884857147257623,0.2446024464850879,0.3081865022175549,0.9378460189842234,0.8140689501996584,0.3990509157928059,0.599592259014598,1.21226513070948,0.5974271230639711,-0.07561409280822873,-0.01670290304449546,1.06713481142903,0.4144092144444328,-0.3658986118872716,-0.4277874899583776,0.5418366902062438,585.4578754578755,810.2930402930403,808.2783882783883,797.3992673992674,777.2527472527473,-0.689514,0.100586,0.710022,3.701019,-23.170624,9.921722,1,4,1,1,1,75.000000
2019-04-29 12:40:32.302,1.980036914827076,0.4501139101732027,-0.02961309840629506,0.9837684560135863,0.884857147257623,-0.02671796132796956,-0.2575814842855776,0.6892929684587302,0.8140689501996584,0.2321645332636014,0.08919124567594286,0.9712977477062622,0.5974271230639711,-0.1726381423872554,-0.08077556082641041,1.066110779229213,0.4144092144444328,-0.5432649890833436,-0.3690498341750781,0.6969601288496077,1091.135531135531,794.981684981685,800.2197802197802,780.0732600732601,1027.069597069597,-0.259155,0.087708,0.963440,3.043060,-25.286560,-1.128998,1,4,1,1,1,75.000000
2019-04-29 12:40:33.303,1.980036914827076,0.1069994724605424,-0.158995535120811,0.9797650333475846,0.884857147257623,-0.3954418929478793,-0.1437241362197564,0.6777074337925967,0.8140689501996584,-0.09893856773910965,0.2057550783127546,0.8099149017254764,0.5974271230639711,-0.1677917868303668,-0.04711016732002198,0.938257787777609,0.4144092144444328,-0.4881375159084463,-0.4794808645186178,0.6062650093731486,754.2857142857143,797.8021978021978,788.5347985347986,813.1135531135532,619.3040293040293,0.003418,0.046082,0.999634,3.910370,-11.820831,-5.233765,1,4,1,1,1,75.000000
2019-04-29 12:40:34.310,1.980036914827076,0.2963987837711576,0.4242778073749354,1.015947836238428,0.884857147257623,-0.2230257371328367,-0.1426968660375352,0.289164279865635,0.8140689501996584,-0.07465411259522318,0.3732123357682397,0.7756877196497241,0.5974271230639711,-0.2781444740869485,-0.1513980316025766,0.786595848778637,0.4144092144444328,-0.586452384210442,-0.6542724965982508,0.4587736750612302,925.1282051282052,781.6849816849817,795.3846153846154,814.7252747252747,751.8681318681319,-0.050964,0.006226,1.004333,1.801910,12.187195,-5.069275,1,4,1,1,1,75.000000
2019-04-29 12:40:35.302,1.980036914827076,0.2160906648760066,0.3287413256527694,0.7810177312312898,0.884857147257623,-0.1966457360523685,-0.2572176435564334,0.4823688273893039,0.8140689501996584,0.1451249600604556,0.38004243133144,0.85244672295253,0.5974271230639711,-0.2635867572099954,-0.0565248592561632,0.9652656020411459,0.4144092144444328,-0.5914709863540721,-0.6816154083934576,0.5564190066707876,790.1465201465202,796.1904761904763,788.1318681318681,789.3406593406594,1030.695970695971,-0.449036,0.134583,0.868652,5.330963,17.981720,-6.826324,1,4,1,1,1,75.000000
2019-04-29 12:40:36.306,1.980036914827076,0.06241342077389528,0.61158807952656,0.9060889137035448,0.884857147257623,-0.1931478365714346,0.03751829056980482,0.4499450126516767,0.8140689501996584,0.1645166931776302,0.04588319696849077,0.6430027674514533,0.5974271230639711,-0.1699871786467953,-0.06303085298397432,0.8395706799476468,0.4144092144444328,-0.5649930218948706,-0.5493440340815422,0.5164674962443344,635.8241758241759,805.8608058608058,803.040293040293,799.0109890109891,550.4029304029305,-0.813110,0.146729,0.578491,6.691742,9.802094,-5.682373,1,4,1,1,1,75.000000
2019-04-29 12:40:37.302,1.980036914827076,-0.08557437324711338,0.3324488162345212,0.9033742885728554,0.884857147257623,-0.07170174594561704,0.01488410019972732,0.4616139666238582,0.8140689501996584,0.04425473086356214,0.2998195590414515,0.806910054006892,0.5974271230639711,-0.2259346866853838,-0.08390413890926345,0.8122301412937694,0.4144092144444328,-0.4650121543961483,-0.5414418021014709,0.4455957514145341,1147.948717948718,804.2490842490843,801.025641025641,825.6043956043957,786.5201465201466,-0.669800,0.109131,0.738098,-1.659851,-34.400787,4.994507,1,4,1,1,1,75.000000
2019-04-29 12:40:37.400,,,,,,,,,,,,,,,,,,,,,,,,,,,,,,,,,,,,,,/muse/elements/blink
2019-04-29 12:40:38.253,,,,,,,,,,,,,,,,,,,,,,,,,,,,,,,,,,,,,,/muse/elements/blink
2019-04-29 12:40:38.314,1.980036914827076,0.169889964619938,0.246517806725798,0.8385279724761444,0.884857147257623,0.1947779782199596,0.01304203458453248,0.824809100010943,0.8140689501996584,0.159176982981535,0.3178710457653237,0.7336122839777772,0.5974271230639711,-0.1976360342179439,-0.1769828245866939,0.8632228324292635,0.4144092144444328,-0.4024666732160185,-0.5266196319072234,0.3655994547499856,570.5494505494505,802.6373626373627,791.3553113553114,802.2344322344322,666.0439560439561,-0.249268,0.191589,0.967590,2.385101,-20.800476,7.873077,1,4,1,1,1,75.000000
2019-04-29 12:40:39.311,1.980036914827076,0.4090415100231037,0.3054939528067576,1.144558482785184,0.884857147257623,-0.04671852671196156,-0.1456375597466729,1.216154107357968,0.8140689501996584,0.147625213298584,-0.02012673359604173,0.8904817990328557,0.5974271230639711,-0.2859270483464983,-0.1573710310010143,1.010152235873975,0.4144092144444328,-0.583815588615361,-0.6355762620893277,0.2353854366986916,682.967032967033,800.2197802197802,781.2820512820513,807.0695970695971,878.3882783882784,0.028442,0.176697,0.983887,3.843079,-20.022888,-5.271149,1,4,1,1,1,75.000000
2019-04-29 12:40:40.302,1.980036914827076,0.2696472798246106,0.8645528093805089,0.9187507226074908,0.884857147257623,-0.1302136439114686,0.02884151619722808,0.6863239853622255,0.8140689501996584,0.1552230711611556,0.1463712444645753,0.9303606800571527,0.5974271230639711,-0.3090061089694075,-0.2423642720339279,0.7355640450087851,0.4144092144444328,-0.6064079059711204,-0.7057151063043282,0.01735214525284876,91.06227106227107,794.5787545787546,798.6080586080586,789.3406593406594,782.893772893773,-0.102173,0.113098,1.003784,-1.869202,12.867584,-8.605804,1,4,1,1,1,75.000000
2019-04-29 12:40:41.302,1.980036914827076,0.143072396139684,0.5943207696819028,0.9104785719644142,0.884857147257623,-0.1517725052117219,-0.1420165376160664,0.8254276265846027,0.8140689501996584,0.5102794512399761,0.6477261987545799,1.198442550281625,0.5974271230639711,-0.2906980483806785,-0.2011512628113333,0.5704194416030257,0.4144092144444328,-0.528365985021008,-0.5878072815410972,0.2159251772032315,163.5897435897436,794.5787545787546,805.8608058608058,804.2490842490843,881.2087912087912,-0.512268,0.133789,0.877014,8.882446,12.777863,2.557068,1,4,1,1,1,75.000000
2019-04-29 12:40:41.786,,,,,,,,,,,,,,,,,,,,,,,,,,,,,,,,,,,,,,/muse/elements/blink
2019-04-29 12:40:42.302,1.980036914827076,1.306480573674953,1.021949228851545,1.268464669532011,0.884857147257623,0.7709236540891293,0.6784761208103345,1.199049811301613,0.8140689501996584,0.5901735739804589,0.7723035871111495,1.125442356632971,0.5974271230639711,-0.05801954496666341,-0.1170335068614728,0.6155803287594559,0.4144092144444328,-0.4311398082241323,-0.4683323669401301,0.2659870494997944,1626.227106227106,794.981684981685,797.8021978021978,821.5750915750916,774.8351648351648,-0.509094,-0.043823,0.847168,42.744904,-3.641205,-63.126678,1,4,1,1,1,75.000000
2019-04-29 12:40:43.302,1.980036914827076,1.643399463607004,1.263311671086224,1.380011325224261,0.884857147257623,1.259656454202473,1.119200668884992,1.342170829533001,0.8140689501996584,0.8761928987551896,1.055258708045635,0.9154914218456095,0.5974271230639711,0.06172232625752003,0.07200939897483113,0.6078163820711663,0.4144092144444328,-0.4059586362878231,-0.4769379205032024,0.1322326229843463,1574.249084249084,801.4285714285714,803.8461538461539,813.1135531135532,771.2087912087912,-0.427795,0.078674,0.907410,1.398163,-8.411407,-3.476715,1,4,1,1,1,75.000000
2019-04-29 12:40:43.615,,,,,,,,,,,,,,,,,,,,,,,,,,,,,,,,,,,,,,/muse/elements/blink
2019-04-29 12:40:44.310,1.980036914827076,1.236091996417198,1.092243274296725,1.380011325224261,0.884857147257623,0.9091455302354908,0.8915362396070705,1.342170829533001,0.8140689501996584,0.7681501321423665,1.034634210231622,0.9154914218456095,0.5974271230639711,-0.04982392372823051,0.05825241250284579,0.6078163820711663,0.4144092144444328,-0.395493308303133,-0.5543656996328993,0.1322326229843463,118.0586080586081,796.5934065934066,805.4578754578755,819.5604395604396,846.959706959707,-0.381958,0.103455,0.939453,3.289795,-6.572113,-3.237457,1,4,1,1,1,75.000000
2019-04-29 12:40:45.026,,,,,,,,,,,,,,,,,,,,,,,,,,,,,,,,,,,,,,/muse/elements/blink
2019-04-29 12:40:45.306,1.980036914827076,0.3735164862834747,0.8153095187017023,1.380011325224261,0.884857147257623,0.3586594837859354,0.6350349634237308,1.342170829533001,0.8140689501996584,0.138071781776203,0.6082107210346053,0.9154914218456095,0.5974271230639711,-0.05113365792345382,0.08221913025988063,0.6078163820711663,0.4144092144444328,-0.2720141666517348,-0.4010768064781478,0.1322326229843463,0,793.3699633699634,796.1904761904763,816.3369963369963,525.018315018315,-0.408508,0.098267,0.924316,4.029999,14.004059,15.222778,1,4,1,1,2,75.000000
2019-04-29 12:40:46.310,1.980036914827076,0.5238451446127963,0.5766094017564122,0.6748083793945746,0.884857147257623,0.4754367134014187,0.5347932655940543,0.1123495807094909,0.8140689501996584,0.1442059952455902,0.5917536147938905,0.2721922896194828,0.5974271230639711,0.1721753031843058,0.2814791951185006,0.1298258142306535,0.4144092144444328,-0.071123362806852,-0.09847779831069647,0.06145252793181837,0,769.5970695970697,790.952380952381,793.7728937728938,754.2857142857143,-0.121399,0.102234,0.990234,3.416901,-14.848938,0.867310,1,4,1,1,1,75.000000
2019-04-29 12:40:46.639,,,,,,,,,,,,,,,,,,,,,,,,,,,,,,,,,,,,,,/muse/elements/blink
2019-04-29 12:40:47.302,1.980036914827076,0.6882517157360845,0.6447916166710534,0.7414086090109092,0.884857147257623,0.167246572792308,0.2803644925372988,0.2467156186660337,0.8140689501996584,0.05592358541209128,0.3775384376426831,0.4173545548525837,0.5974271230639711,0.1726922159994951,0.2370588614386934,0.1056586975199121,0.4144092144444328,0.01394157897850561,-0.07404454174244168,0.02857996727238045,1205.164835164835,793.7728937728938,797.3992673992674,845.3479853479854,619.7069597069598,-0.244690,0.092407,0.968201,4.747772,-4.254303,-2.542114,1,4,1,1,1,75.000000
2019-04-29 12:40:47.310,,,,,,,,,,,,,,,,,,,,,,,,,,,,,,,,,,,,,,/muse/elements/blink
2019-04-29 12:40:47.881,,,,,,,,,,,,,,,,,,,,,,,,,,,,,,,,,,,,,,/muse/elements/blink
2019-04-29 12:40:48.306,1.980036914827076,1.410318065305461,0.7457461401685568,0.8401253897418053,0.884857147257623,0.4726410934985383,0.4907113441661645,0.302255208941394,0.8140689501996584,0.3972866630118108,0.3948897843032942,0.3892182631587516,0.5974271230639711,0.1335927631682854,-0.03104829831780716,0.05665807119269598,0.4144092144444328,-0.3824097985066836,-0.4035494281612022,0.02696073839696537,258.2783882783883,811.9047619047619,805.0549450549451,733.7362637362637,591.0989010989011,-0.223206,0.057922,1.002991,4.291687,-3.985138,-23.649139,1,4,1,1,1,75.000000
2019-04-29 12:40:48.486,,,,,,,,,,,,,,,,,,,,,,,,,,,,,,,,,,,,,,/muse/elements/blink
2019-04-29 12:40:49.302,1.980036914827076,1.468483480169862,0.9676779473309668,0.8401253897418053,0.884857147257623,0.5032187587713933,0.3045424012141893,0.302255208941394,0.8140689501996584,0.3069897642397116,0.4330689272733231,0.3892182631587516,0.5974271230639711,0.3809209866208441,-0.03026393459989132,0.05665807119269598,0.4144092144444328,0.006155983732347977,-0.3591954610761514,0.02696073839696537,0,784.1025641025641,798.2051282051282,865.8974358974359,775.6410256410256,-0.383423,-0.020447,0.927063,-0.882263,13.323669,47.657166,1,4,1,1,2,75.000000
2019-04-29 12:40:49.705,,,,,,,,,,,,,,,,,,,,,,,,,,,,,,,,,,,,,,/muse/elements/blink
2019-04-29 12:40:50.302,1.980036914827076,1.288889047423452,1.570003614310997,0.8401253897418053,0.884857147257623,0.5449321701737428,0.8982022529292586,0.302255208941394,0.8140689501996584,0.4087025276817435,0.6177119587810536,0.3892182631587516,0.5974271230639711,0.2615679292555845,0.3590844296882616,0.05665807119269598,0.4144092144444328,0.009448807061510314,0.1384759347887299,0.02696073839696537,1626.227106227106,805.0549450549451,798.2051282051282,785.3113553113553,943.2600732600733,-0.578552,0.113892,0.835022,0.314026,-8.688049,8.822632,1,4,1,1,2,75.000000
2019-04-29 12:40:50.809,,,,,,,,,,,,,,,,,,,,,,,,,,,,,,,,,,,,,,/muse/elements/blink
2019-04-29 12:40:51.312,1.980036914827076,1.617484392734334,1.691072831836216,0.8401253897418053,0.884857147257623,0.8564878601248763,0.9695573648956662,0.302255208941394,0.8140689501996584,0.776664893001293,0.6197791131960484,0.3892182631587516,0.5974271230639711,0.2710265578326058,0.551356783798521,0.05665807119269598,0.4144092144444328,0.2104751033454674,0.3317149042483792,0.02696073839696537,1600.842490842491,863.4798534798535,747.8388278388279,807.8754578754579,860.2564102564103,-0.848083,0.050415,0.640503,31.253052,-15.805969,-46.453400,1,4,1,1,2,75.000000
2019-04-29 12:40:51.456,,,,,,,,,,,,,,,,,,,,,,,,,,,,,,,,,,,,,,/muse/elements/blink
2019-04-29 12:40:52.229,,,,,,,,,,,,,,,,,,,,,,,,,,,,,,,,,,,,,,/muse/elements/jaw_clench
2019-04-29 12:40:52.316,1.980036914827076,1.678180423309248,1.435885670083325,0.8401253897418053,0.884857147257623,1.234298471899068,0.9950421636797022,0.302255208941394,0.8140689501996584,0.8135732416957067,0.761883068492746,0.3892182631587516,0.5974271230639711,0.4378430258067486,0.6652919226872356,0.05665807119269598,0.4144092144444328,0.5230866824429978,0.5676765549821835,0.02696073839696537,0,791.7582417582418,780.8791208791209,896.9230769230769,637.4358974358975,-0.645325,0.082092,0.751282,-16.860199,26.101532,46.909485,1,4,1,1,2,75.000000
2019-04-29 12:40:53.168,,,,,,,,,,,,,,,,,,,,,,,,,,,,,,,,,,,,,,/muse/elements/blink
2019-04-29 12:40:53.307,1.980036914827076,1.641146872878454,1.371288459991843,0.8401253897418053,0.884857147257623,1.086244891193161,0.9047198998735586,0.302255208941394,0.8140689501996584,0.8260557920052513,0.9396262452888904,0.3892182631587516,0.5974271230639711,0.9105792067919122,0.9740640321629662,0.05665807119269598,0.4144092144444328,0.7706555644704335,0.9347051536749714,0.02696073839696537,1610.512820512821,785.7142857142858,811.5018315018315,734.1391941391942,909.4139194139194,-0.554993,0.156677,0.855835,-1.405640,-116.727905,-24.897766,1,4,1,1,2,75.000000
2019-04-29 12:40:53.826,,,,,,,,,,,,,,,,,,,,,,,,,,,,,,,,,,,,,,/muse/elements/jaw_clench
2019-04-29 12:40:53.899,,,,,,,,,,,,,,,,,,,,,,,,,,,,,,,,,,,,,,/muse/elements/blink
2019-04-29 12:40:54.302,1.980036914827076,1.714648380013323,1.45420976914138,0.8401253897418053,0.884857147257623,0.8716381692956731,0.893685364015373,0.302255208941394,0.8140689501996584,0.6769890590373158,1.090160825867382,0.3892182631587516,0.5974271230639711,1.2346681890215,1.105310235326539,0.05665807119269598,0.4144092144444328,1.101106573712018,0.9635709998596517,0.02696073839696537,1193.076923076923,612.8571428571429,795.7875457875458,810.2930402930403,852.6007326007326,0.420288,0.027954,0.905396,3.611298,-3.274841,3.992615,1,4,1,1,2,75.000000
2019-04-29 12:40:55.302,1.980036914827076,1.714648380013323,1.657000017482446,1.730864151247502,0.884857147257623,0.8716381692956731,0.8517047549723405,1.07853925895824,0.8140689501996584,0.6769890590373158,1.026616524844378,0.8264260874957614,0.5974271230639711,1.2346681890215,0.6921728448377543,0.8003255702237714,0.4144092144444328,1.101106573712018,0.5131666711761009,0.5512444271539239,933.1868131868132,740.989010989011,802.2344322344322,807.4725274725275,652.7472527472528,0.351318,0.061523,0.929688,3.484192,-8.635712,3.297272,1,2,1,1,1,75.000000
2019-04-29 12:40:56.311,1.980036914827076,1.794879721542184,0.8401864558417724,1.750610378205522,0.884857147257623,0.6731379689511794,0.3455246317788992,0.9825412790033392,0.8140689501996584,0.3520745990841673,0.5050662207481327,0.8501756865511858,0.5974271230639711,0.03179611637859785,0.2815150460545202,0.7829291614509972,0.4144092144444328,-0.2170486881702378,0.2254673321790372,0.5443247716545973,825.2014652014652,785.7142857142858,788.1318681318681,824.3956043956044,925.934065934066,0.370544,-0.025757,0.929199,4.762726,-6.377716,-2.601929,1,1,1,1,1,75.000000
2019-04-29 12:40:57.302,1.980036914827076,1.331326440326489,0.6103250721897135,1.173543572236242,0.884857147257623,0.3687200769706107,0.364237112092446,0.551307405210393,0.8140689501996584,0.6253777691227463,0.5899822661806743,1.141841065575609,0.5974271230639711,-0.08234798874871854,0.0001914349143384152,0.8022021641954905,0.4144092144444328,-0.2660974438317488,0.07549637411256342,0.7220016860531839,796.996336996337,786.5201465201466,794.5787545787546,811.5018315018315,767.985347985348,0.387329,-0.042847,0.915710,4.059906,-4.755249,-1.428070,1,1,1,1,1,75.000000
2019-04-29 12:40:58.302,1.980036914827076,0.6140344681257349,0.429813890045732,1.021229182142422,0.884857147257623,-0.2293120125700796,0.09263595608289926,1.069308915185228,0.8140689501996584,0.472033746687932,0.7167340760387442,1.454722993359526,0.5974271230639711,-0.1424015382892721,0.1327861842788027,0.7082727431675039,0.4144092144444328,-0.4013024513425588,0.1694532474598515,0.7486822265465738,0,676.5201465201466,799.0109890109891,801.025641025641,688.2051282051282,0.339600,-0.060791,0.909241,12.575989,63.709869,17.877045,1,1,1,1,1,75.000000
2019-04-29 12:40:58.443,,,,,,,,,,,,,,,,,,,,,,,,,,,,,,,,,,,,,,/muse/elements/blink
2019-04-29 12:40:58.745,,,,,,,,,,,,,,,,,,,,,,,,,,,,,,,,,,,,,,/muse/elements/blink
2019-04-29 12:40:59.153,,,,,,,,,,,,,,,,,,,,,,,,,,,,,,,,,,,,,,/muse/elements/blink
2019-04-29 12:40:59.302,1.980036914827076,0.7039567109858241,1.54090923563673,0.9563524689724741,0.884857147257623,0.004923076629387899,0.4768424453148478,1.035792902333576,0.8140689501996584,0.01150230495827746,0.9732979749792331,1.271324233968022,0.5974271230639711,-0.2518055265637788,0.3575902036824213,0.7614453945655755,0.4144092144444328,-0.4230725334233231,0.1764179657121109,0.3824625930688436,0,1212.820512820513,820.3663003663004,801.8315018315019,879.1941391941392,-0.426575,0.090454,0.890503,11.013336,-5.353394,-18.250885,1,4,1,1,1,75.000000
2019-04-29 12:40:59.866,,,,,,,,,,,,,,,,,,,,,,,,,,,,,,,,,,,,,,/muse/elements/blink
2019-04-29 12:41:00.307,1.980036914827076,0.7039567109858241,1.694714293302143,0.9563524689724741,0.884857147257623,0.004923076629387899,0.9147000422997403,1.035792902333576,0.8140689501996584,0.01150230495827746,0.9724538380240931,1.271324233968022,0.5974271230639711,-0.2518055265637788,0.5592719241865335,0.7614453945655755,0.4144092144444328,-0.4230725334233231,0.4307487804186605,0.3824625930688436,0,805.4578754578755,851.3919413919414,844.1391941391942,697.4725274725275,-0.334290,0.140869,0.913452,-54.640503,0.657959,144.392090,1,4,1,1,1,75.000000
2019-04-29 12:41:01.304,1.980036914827076,0.7039567109858241,1.550142119347352,0.9563524689724741,0.884857147257623,0.004923076629387899,0.9171075010903776,1.035792902333576,0.8140689501996584,0.01150230495827746,0.9129303972984987,1.271324233968022,0.5974271230639711,-0.2518055265637788,0.495736714403373,0.7614453945655755,0.4144092144444328,-0.4230725334233231,-0.04347741234004299,0.3824625930688436,945.6776556776557,817.5457875457876,812.3076923076924,788.9377289377289,709.5604395604396,-0.375488,0.014893,0.940552,8.538513,-5.861816,-13.233948,1,4,1,1,2,75.000000
2019-04-29 12:41:02.308,1.980036914827076,1.243640139742331,1.196744245406707,0.9737588334656712,0.884857147257623,0.3434837970594191,0.5029337097083709,0.4240632233878337,0.8140689501996584,0.7504171008912055,0.8272678903349168,0.582299079150452,0.5974271230639711,0.3123833043116076,0.4558947039103562,0.5349419501691167,0.4144092144444328,-0.06930993228745273,-0.1919129130641165,0.3474638718292229,0,803.040293040293,809.0842490842491,825.6043956043957,939.2307692307693,-0.308716,0.095398,0.961426,3.708496,-5.802002,-22.131348,1,4,1,1,1,75.000000
2019-04-29 12:41:03.301,1.980036914827076,0.3127873099842731,-0.1244089707534582,1.316936267845497,0.884857147257623,-0.06685403738921313,0.1080520866181473,1.187135545629233,0.8140689501996584,0.2335003428073588,0.344202371864406,0.9040156088842396,0.5974271230639711,0.1422102891714178,0.04401307793358618,0.3513929110549403,0.4144092144444328,-0.190459351108035,-0.3783633801446351,-0.004287274235529053,1177.765567765568,814.3223443223443,806.6666666666667,818.3516483516484,664.8351648351648,-0.326233,0.038391,0.953613,14.056396,-8.030090,-33.623199,1,4,1,1,1,75.000000
2019-04-29 12:41:04.302,1.980036914827076,0.3398891890785335,0.191255936737607,1.222417923475039,0.884857147257623,0.06110674279599757,-0.1483680059541801,0.7551099202979068,0.8140689501996584,0.3618854117390395,0.3128654715282542,0.8788538486074325,0.5974271230639711,0.1170931013583861,-0.04912016807350766,0.2742254598987463,0.4144092144444328,-0.02059630088589922,-0.4147114913006378,-0.01030742090834463,0,818.3516483516484,823.5897435897436,806.6666666666667,669.6703296703297,-0.338867,0.044250,0.954834,1.487885,-2.781372,4.620667,1,4,1,1,1,75.000000
2019-04-29 12:41:05.305,1.980036914827076,0.1135382869227346,0.7474185208975154,0.9416488538778169,0.884857147257623,-0.1499863124207144,0.01465699362542426,0.6523846431372303,0.8140689501996584,0.5631879931630935,0.3252269383869529,1.03870340660345,0.5974271230639711,0.3755646027934407,-0.2049939033398475,0.334681167068049,0.4144092144444328,0.3704927210631938,-0.4363328951127803,0.006597712148322996,0,809.8901098901099,800.2197802197802,811.0989010989011,1124.981684981685,-0.421509,0.012512,0.919678,-0.291595,-4.231873,7.215118,1,4,1,1,1,75.000000
2019-04-29 12:41:06.247,,,,,,,,,,,,,,,,,,,,,,,,,,,,,,,,,,,,,,/muse/elements/blink
2019-04-29 12:41:06.302,1.980036914827076,0.8470660893687546,1.064522233053771,0.9159503782459706,0.884857147257623,0.488083417599278,0.3899188871318838,0.835816922304208,0.8140689501996584,0.4785448487640144,0.4497139453051627,1.145804195016487,0.5974271230639711,0.3786924926728213,-0.215158101532414,0.697394237245721,0.4144092144444328,0.4036524745035323,-0.4452161759657755,0.1645476397237539,1626.227106227106,794.5787545787546,801.8315018315019,770.4029304029305,773.2234432234433,-0.685547,-0.020203,0.733398,-37.705536,46.453400,64.143524,1,4,1,1,1,75.000000
2019-04-29 12:41:06.871,,,,,,,,,,,,,,,,,,,,,,,,,,,,,,,,,,,,,,/muse/elements/blink
2019-04-29 12:41:07.301,1.980036914827076,1.507014494910479,1.026255459994475,1.159007517053792,0.884857147257623,1.045777395777594,0.5794804003369531,1.153865468744257,0.8140689501996584,1.068329070341444,0.5767467245806533,1.145804195016487,0.5974271230639711,0.1018102451832214,0.3076884046072019,0.9955334722937234,0.4144092144444328,-0.0731627600580925,0.1347049806598187,0.3106306352481884,1626.227106227106,809.8901098901099,805.0549450549451,770.8058608058608,733.3333333333334,-0.434753,0.056885,0.913452,32.426910,-28.681030,-36.494293,1,4,1,1,1,75.000000
2019-04-29 12:41:08.309,1.980036914827076,1.386109231249123,0.487593438249056,0.9012146977634687,0.884857147257623,0.8673903429491211,0.4396958025265444,0.8265276607027739,0.8140689501996584,1.032535345785721,0.5492924710297393,1.115800438789443,0.5974271230639711,0.2005911648818214,0.1735921354137765,0.7405782771636493,0.4144092144444328,0.009025484861287462,-0.1428497934308933,0.4456371416898336,1611.721611721612,800.6227106227107,811.9047619047619,822.3809523809524,686.996336996337,-0.277466,0.175415,0.970764,26.131439,-10.938568,-45.548706,1,4,1,1,1,75.000000
2019-04-29 12:41:09.301,1.980036914827076,1.124056060590762,0.9904944104434116,0.9012146977634687,0.884857147257623,0.7916172875385891,0.5800221443915393,0.8265276607027739,0.8140689501996584,0.6072863275484087,0.445948574034617,1.115800438789443,0.5974271230639711,0.2548048219384391,-0.1828043683070295,0.7405782771636493,0.4144092144444328,0.07986730274794782,-0.4829384157083816,0.4456371416898336,477.4725274725275,801.4285714285714,796.1904761904763,788.1318681318681,713.992673992674,-0.339478,0.078552,0.943359,16.763000,-2.646790,-14.161072,1,4,1,1,1,75.000000
2019-04-29 12:41:10.310,1.980036914827076,0.6497841669540488,0.8245687809391495,0.887053950200126,0.884857147257623,0.3641637285181138,0.211722565996217,1.041462283149805,0.8140689501996584,0.4768583816585306,0.2713149721048673,1.199111102365841,0.5974271230639711,0.113840362391204,-0.08269394285644562,0.5283547175621625,0.4144092144444328,-0.09085417995556359,-0.6124110972666638,0.1372697311167501,0,795.3846153846154,801.4285714285714,810.6959706959707,583.040293040293,-0.385315,0.038208,0.935303,4.201965,-6.168365,5.248718,1,4,1,1,1,75.000000
2019-04-29 12:41:11.304,1.980036914827076,0.5906469025691995,0.520010894394951,0.8146430405142799,0.884857147257623,0.1260947483004874,0.2098525310362955,0.8575612126665377,0.8140689501996584,0.4882181799439528,0.3545472972138393,1.154969877868285,0.5974271230639711,0.1019621210695267,0.0004163928546335536,0.5358324420738916,0.4144092144444328,-0.05501950176146143,-0.5186552571406953,0.1105091109444572,0,789.7435897435897,799.8168498168499,769.1941391941392,852.6007326007326,-0.378540,0.065552,0.934692,-0.740204,-8.680573,21.712646,1,4,1,1,1,75.000000
2019-04-29 12:41:12.309,1.980036914827076,0.2854978832805775,0.557607194907306,0.9013247232192443,0.884857147257623,-0.1559181402344051,0.1278006140608305,0.6789865937439469,0.8140689501996584,0.4057615746440023,0.2911996126279697,1.342264694226429,0.5974271230639711,0.2463257633634784,-0.0889065877248765,0.6745721783668587,0.4144092144444328,0.05013637250425164,-0.4501741729989108,0.1943151138657244,0,811.5018315018315,799.0109890109891,780.4761904761905,715.6043956043957,-0.377747,-0.033508,0.983215,-8.119812,-8.299255,31.096039,1,4,1,1,1,75.000000
2019-04-29 12:41:13.302,1.980036914827076,0.1793426431707116,0.5795617598519909,1.152152255580891,0.884857147257623,-0.1755959789080678,-0.02533844080304858,0.7642164084709877,0.8140689501996584,0.2991218589639296,0.456979776548789,1.399498414713887,0.5974271230639711,0.1778258853425846,-0.1655850817745319,0.9871447397791362,0.4144092144444328,-0.05128648681061283,-0.4937790524099721,0.4725788402162702,1224.102564102564,809.0842490842491,792.967032967033,765.1648351648352,703.1135531135532,-0.390991,0.029968,0.927307,14.691925,-9.637604,-20.351868,1,4,1,1,1,75.000000
2019-04-29 12:41:14.302,1.980036914827076,0.3618132277072007,0.4735564257368703,1.11461036411169,0.884857147257623,-0.1845867882107474,-0.1224214247425565,0.7981631526221852,0.8140689501996584,0.446472774814218,0.391552904234612,1.074454362648187,0.5974271230639711,-0.1288587669653586,-0.1711487612617367,0.9264111054667692,0.4144092144444328,-0.5369268082336907,-0.5650130428728645,0.4850031240878788,243.7728937728938,792.5641025641025,801.4285714285714,809.8901098901099,1029.487179487179,-0.248169,0.073975,0.968811,21.308899,-12.247009,-29.578247,1,4,1,1,1,75.000000
2019-04-29 12:41:15.313,1.980036914827076,0.2991602853554048,-0.02262117019044978,1.108675216263144,0.884857147257623,0.03295363131382296,-0.5019118538922699,0.8925010134246247,0.8140689501996584,0.5343031709957222,0.378520906324543,0.9665204969618818,0.5974271230639711,-0.03463316674289763,-0.2382919274129324,0.6138711919169101,0.4144092144444328,-0.4681095420281625,-0.5913236832476987,-0.08692462258005194,165.6043956043956,809.0842490842491,801.025641025641,794.1758241758242,738.1684981684982,-0.247009,0.087891,0.964539,3.327179,-7.574005,9.271240,1,4,1,1,1,75.000000
2019-04-29 12:41:15.799,,,,,,,,,,,,,,,,,,,,,,,,,,,,,,,,,,,,,,/muse/elements/blink
2019-04-29 12:41:16.302,1.980036914827076,0.8052097521095951,0.7627390679864272,0.8215343799928528,0.884857147257623,0.3662064568799746,0.1889266509721937,0.8655224261872301,0.8140689501996584,0.3584129178871007,0.5981820167199647,1.093898788433786,0.5974271230639711,-0.04876797968950458,-0.2517130335615863,0.5141492541773092,0.4144092144444328,-0.3490260332574781,-0.5175265788768743,-0.05505853455952726,312.2710622710623,804.2490842490843,798.6080586080586,803.8461538461539,800.2197802197802,-0.264343,0.097778,0.964966,4.224396,-5.360870,-19.970551,1,4,1,1,1,75.000000
2019-04-29 12:41:17.325,1.980036914827076,0.8747770814705008,0.9662757161404205,0.6720307363423841,0.884857147257623,0.2794311714453601,0.2876740107061037,0.436270258420667,0.8140689501996584,0.5897168276746507,0.5293570857004041,0.4434871712220197,0.5974271230639711,0.262885418268533,-0.1023261179060881,0.4139286666880493,0.4144092144444328,0.03360995094591094,-0.4536772241651423,-0.08344171490548835,0,794.981684981685,796.1904761904763,810.2930402930403,595.5311355311355,-0.336670,-0.002380,0.950073,-9.024506,-3.790741,27.395020,1,4,1,1,1,75.000000
2019-04-29 12:41:18.310,1.980036914827076,0.3125530764062686,0.6221146041947657,0.397235584259123,0.884857147257623,-0.01597183368116852,0.245091513234303,0.3627642805984881,0.8140689501996584,0.4717948428751109,0.522216589094851,0.916366457532878,0.5974271230639711,0.08893603861512532,0.03870239291824967,0.5367771170931818,0.4144092144444328,0.06125080933155952,0.02098230952261134,0.1623152246963938,443.2234432234432,803.4432234432235,803.040293040293,803.4432234432235,674.1025641025641,-0.391724,-0.017090,0.927551,-3.603821,-1.315918,23.544464,1,4,1,1,1,75.000000
2019-04-29 12:41:19.311,1.980036914827076,-0.09830138102656084,0.2903006827282748,0.7876276747052746,0.884857147257623,0.001997038485274632,0.1184159644978462,0.6344789358762795,0.8140689501996584,0.3254827766966367,0.4964597052851076,0.9549900604344403,0.5974271230639711,-0.1258716849775305,-0.09497453272857097,0.9095504627141742,0.4144092144444328,-0.2782615806565522,-0.4439676139829105,0.4899949733858099,485.9340659340659,825.2014652014652,790.5494505494506,809.0842490842491,664.8351648351648,-0.417419,0.041687,0.958374,2.287903,-4.052429,2.691650,1,4,1,1,1,75.000000
2019-04-29 12:41:20.305,1.980036914827076,0.8112142311448507,0.4666116186514752,1.267856052414738,0.884857147257623,0.006044061919642143,-0.2573192463567459,0.6412511533570029,0.8140689501996584,0.4866739576639467,0.2789004507922838,0.8264503542032697,0.5974271230639711,0.06138096299840887,-0.0234077853870474,0.9336620117803617,0.4144092144444328,-0.5185520216974868,-0.5691616146948452,0.4647927998139104,1160.842490842491,803.040293040293,806.6666666666667,804.6520146520147,670.8791208791209,-0.333313,0.033813,1.005066,24.165039,-11.342316,-50.094604,1,4,1,1,1,75.000000
2019-04-29 12:41:21.302,1.980036914827076,0.7565879678261926,0.4686869853127139,1.353794315005381,0.884857147257623,-0.2705935731613575,-0.2357635937405082,0.5634602086722986,0.8140689501996584,0.5483768355950044,0.4141370303184695,0.993229749053202,0.5974271230639711,0.2808415903895821,-0.04839721564667971,0.6659195103396895,0.4144092144444328,-0.1077572143958689,-0.7307675644471573,0.1158670510591805,1517.435897435897,786.5201465201466,803.4432234432235,797.8021978021978,762.7472527472528,-0.221191,0.174011,0.967712,7.402039,-8.934784,-10.377808,1,4,1,1,1,75.000000
2019-04-29 12:41:22.301,1.980036914827076,0.1910253993605584,0.1084532069552295,1.140245489793985,0.884857147257623,-0.2900687798849488,-0.1366966663527257,0.6476584023192047,0.8140689501996584,0.5692647431697929,0.250953586048111,0.8927171171331467,0.5974271230639711,0.5202271150718171,-0.1711735120884688,0.3847354245900122,0.4144092144444328,0.07900436491039238,-0.6394084108481981,0.01101887415520791,0,792.967032967033,796.996336996337,803.040293040293,808.6813186813187,-0.296509,0.108948,0.950745,-0.328979,-5.749664,11.058197,1,4,1,1,1,75.000000
2019-04-29 12:41:23.306,1.980036914827076,0.4137686533873824,0.3852197293938253,0.975340970049656,0.884857147257623,0.006725331568672653,0.01621850035920631,0.820085328130932,0.8140689501996584,0.2759219120273821,0.09730246844784554,0.8834467954493083,0.5974271230639711,0.4548992664883996,-0.1709226537151486,0.4579324889477705,0.4144092144444328,0.1418029125294015,-0.5180641120254774,0.1132276898063225,0,798.2051282051282,801.025641025641,800.6227106227107,616.8864468864469,-0.270630,-0.044434,0.959351,-16.448975,2.459869,21.241608,1,4,1,1,1,75.000000
2019-04-29 12:41:24.311,1.980036914827076,0.1287349778146422,0.2050497766649251,0.3975295313009284,0.884857147257623,-0.3078315648254728,0.06688216767975429,0.2766992307605495,0.8140689501996584,-0.01083122423343517,0.4317529274808728,0.891234225360548,0.5974271230639711,0.1864949888178758,-0.1056419053834958,0.444404356422942,0.4144092144444328,0.03106827786845652,-0.5961795784281023,0.214653942048341,149.0842490842491,801.025641025641,807.4725274725275,766.7765567765568,694.2490842490843,-0.333313,-0.040771,0.962708,-9.921722,0.837402,28.067932,1,4,1,1,1,75.000000
2019-04-29 12:41:25.302,1.980036914827076,-0.08603211805568686,0.2082978482533299,0.5981033957094489,0.884857147257623,-0.2887023730136175,0.04757191578646846,0.4218127246664756,0.8140689501996584,0.0234003771412286,0.4355886251647477,1.091190350792754,0.5974271230639711,0.007499035144198904,0.02816071245556221,1.124202682947062,0.4144092144444328,-0.2062806428937292,-0.543191858783804,0.5364577633768314,58.42490842490842,803.040293040293,806.6666666666667,804.2490842490843,788.9377289377289,-0.441650,-0.022705,0.903442,6.699219,-8.030090,-8.800201,1,4,1,1,1,75.000000
2019-04-29 12:41:26.070,,,,,,,,,,,,,,,,,,,,,,,,,,,,,,,,,,,,,,/muse/elements/blink
2019-04-29 12:41:26.305,1.980036914827076,0.0184957078017206,0.4549396338490842,0.7433758355587261,0.884857147257623,-0.2947148643350493,0.05892665781665697,0.3914499826414766,0.8140689501996584,-0.02725755568464026,0.2747416178192016,1.020330656376054,0.5974271230639711,-0.1258070091369037,-0.2153681141751854,1.265424342339998,0.4144092144444328,-0.4624119392708085,-0.5548400795174311,0.73941037057283,249.4139194139194,799.8168498168499,797.3992673992674,816.7399267399268,599.1575091575091,-0.320312,-0.099243,0.941101,21.637878,-2.467346,-35.499878,1,4,1,1,1,75.000000
2019-04-29 12:41:27.302,1.980036914827076,0.5701354403151453,0.6848979376501987,1.217401645015299,0.884857147257623,-0.02984916138696149,0.4162683224574444,0.6305679498766041,0.8140689501996584,0.5353633264089616,0.5129398753662803,0.8243534711660923,0.5974271230639711,0.006349461635336814,-0.05337551273692096,0.8307917764031255,0.4144092144444328,-0.3349777234913328,-0.550091132956355,0.3474384140451592,54.39560439560439,803.8461538461539,807.8754578754579,817.948717948718,787.7289377289378,-0.285217,0.164307,0.990662,16.725616,-6.669312,-6.766510,1,4,1,1,1,75.000000
2019-04-29 12:41:28.302,1.980036914827076,0.9499803216816928,0.5365839521799272,1.148766379274962,0.884857147257623,0.1867858414462506,0.3577103325586923,0.5882289795883424,0.8140689501996584,0.5571718560972307,0.4496021046335928,0.8862230261143117,0.5974271230639711,-0.000995126251685658,-0.1265845988755235,0.6017076355739966,0.4144092144444328,-0.2437536232921045,-0.6068373516817465,0.2063322448851989,0,803.040293040293,805.0549450549451,795.7875457875458,793.3699633699634,-0.364624,0.203735,0.926819,-12.650757,-8.172150,33.750305,1,4,1,1,1,75.000000
2019-04-29 12:41:29.302,1.980036914827076,0.4983160690247368,0.6043811307833793,1.395100899902097,0.884857147257623,-0.1708845610584141,0.01874331004278392,0.7856542512844753,0.8140689501996584,0.1300107937269316,0.2926063992400484,0.9169080753051178,0.5974271230639711,-0.02439619873634778,-0.1496873112055105,0.5447504673535142,0.4144092144444328,-0.1277569140095576,-0.6186407918928658,0.1214060762916796,0,792.5641025641025,804.2490842490843,792.5641025641025,915.4578754578755,-0.414001,0.158752,0.894653,-11.566620,-7.917938,7.618866,1,4,1,1,1,75.000000
2019-04-29 12:41:30.001,,,,,,,,,,,,,,,,,,,,,,,,,,,,,,,,,,,,,,/muse/elements/blink
2019-04-29 12:41:30.303,1.980036914827076,0.4293084747653331,0.3185676956383598,1.557140934351205,0.884857147257623,-0.08939752572036654,0.2497504789871093,1.197620632583177,0.8140689501996584,0.2029823418351996,0.6387464888333044,1.002632818896213,0.5974271230639711,0.07578600651162674,0.02475203297545642,0.7754411153101376,0.4144092144444328,-0.1402949934741493,-0.4907999538322301,0.1922532730094181,948.901098901099,800.6227106227107,809.0842490842491,807.8754578754579,605.2014652014652,-0.395203,0.093140,0.918945,-10.893707,0.433655,24.224854,1,4,1,1,1,75.000000
2019-04-29 12:41:31.306,1.980036914827076,0.1147784978998714,0.4683349509681289,1.068773762871427,0.884857147257623,0.05072139443593673,0.2089323442123611,0.2297633509880864,0.8140689501996584,0.3341017677778467,0.7470433729568366,1.05270746822269,0.5974271230639711,0.07948921127766166,-0.08519951747665476,1.102061126202939,0.4144092144444328,-0.1261421130338831,-0.4220850232708814,0.5590211348924832,961.7948717948718,805.0549450549451,793.3699633699634,814.3223443223443,667.2527472527473,-0.420227,0.119507,0.905273,2.856140,-9.674988,-3.506622,1,4,1,1,1,75.000000
2019-04-29 12:41:32.302,1.980036914827076,0.1949400378631314,0.2753584078464531,0.9504724228804672,0.884857147257623,-0.09039268219263279,-0.3683240603414958,0.4205473794576757,0.8140689501996584,0.05073781993361293,0.2558939426103782,1.126707291688115,0.5974271230639711,-0.1921866256989277,-0.1542626175638502,0.9926235815100942,0.4144092144444328,-0.2573319639622574,-0.5243435684088379,0.3424977422189098,1547.655677655678,792.967032967033,807.4725274725275,814.7252747252747,985.1648351648352,-0.384399,0.038757,0.921509,14.983521,-10.160980,-30.909119,1,4,1,1,1,75.000000
2019-04-29 12:41:33.302,1.980036914827076,0.3942149051771175,0.4129270863170239,1.112048637188807,0.884857147257623,-0.007906020883812042,-0.172786237781328,0.7502304934525946,0.8140689501996584,0.09938231770147075,0.1931134206374834,0.7271358006993993,0.5974271230639711,0.1153932091131683,-0.1502742820961006,0.5914442113284869,0.4144092144444328,0.06149150569008528,-0.6013690141931191,0.03814569717552424,1577.472527472527,786.5201465201466,792.1611721611722,827.2161172161173,836.8864468864469,-0.388916,-0.169434,0.801880,-3.730927,12.396545,-56.031189,1,4,1,1,1,75.000000
2019-04-29 12:41:34.306,1.980036914827076,0.6891136606419542,0.6825313500009521,0.9401062880941647,0.884857147257623,0.2906394789310964,0.4667532926844908,0.7361342139452078,0.8140689501996584,0.4220884299439098,0.2643992620447443,0.7575519668396493,0.5974271230639711,0.271722407130923,-0.2237348185169613,0.3737765483475018,0.4144092144444328,0.1459419534311152,-0.504072227624389,-0.1716871097712229,0,799.8168498168499,815.5311355311355,799.4139194139194,873.1501831501831,-0.362244,-0.036743,0.944031,-0.284119,-5.899200,14.011536,1,4,1,1,1,75.000000
2019-04-29 12:41:35.312,1.980036914827076,0.03667600305780734,0.4746834750846058,0.8795840348943859,0.884857147257623,0.02568216812182533,0.2280742306600886,0.5975307562786807,0.8140689501996584,0.1255131940919884,0.1358869013533201,0.8018575893502626,0.5974271230639711,0.07103781964244216,-0.2048077057894689,0.4653371151398528,0.4144092144444328,-0.1329762229152833,-0.3368647147798619,-0.1116857648430984,1555.714285714286,802.6373626373627,815.1282051282052,789.7435897435897,651.1355311355312,-0.364990,-0.042725,0.921265,-22.639771,-20.935059,20.022888,1,4,1,1,1,75.000000
2019-04-29 12:41:36.309,1.980036914827076,0.210314427609038,0.3966330864386011,0.9211629356595021,0.884857147257623,-0.2160927512923222,0.2695013513583146,0.5306778264975259,0.8140689501996584,0.2379592347028562,0.6223714481587554,1.03082652292299,0.5974271230639711,0.1674420333445279,0.2660816130796714,1.123767408361885,0.4144092144444328,0.1379347526938187,0.2867885376321199,0.4113231505439474,1246.666666666667,787.3260073260074,805.4578754578755,815.5311355311355,628.1684981684982,-0.365845,-0.181824,0.916992,9.764709,-2.646790,21.346283,1,4,1,1,1,75.000000
2019-04-29 12:41:37.309,1.980036914827076,0.1162116772680295,0.4468982792031956,1.071491431416285,0.884857147257623,-0.2003677258522471,0.1906625477825745,0.8132654235067995,0.8140689501996584,0.2142257571116854,0.317308821364825,0.9566249955659657,0.5974271230639711,0.0675956374326012,0.1493108369771248,1.500553039843573,0.4144092144444328,0.1129862602253945,-0.0674769096640969,0.6765152090939714,1035.531135531136,814.3223443223443,806.6666666666667,810.6959706959707,1046.007326007326,-0.389893,0.018005,0.954773,6.714172,-8.456268,-0.613098,1,4,1,1,1,75.000000
2019-04-29 12:41:38.310,1.980036914827076,0.04598800906034637,0.01317705212490942,0.962904366816519,0.884857147257623,-0.4820855235322312,0.02114864494753639,0.6042563563382404,0.8140689501996584,-0.00881723602026525,-0.1062766836944718,1.062653919015264,0.5974271230639711,-0.1344163786635041,0.04903188845307335,1.232113577961724,0.4144092144444328,-0.2560915766464026,-0.2920920016508265,0.6102078100013474,925.934065934066,798.2051282051282,804.2490842490843,816.7399267399268,901.3553113553114,-0.367065,0.005005,0.943787,4.837494,-17.510681,-38.049469,1,4,1,1,1,75.000000
2019-04-29 12:41:39.312,1.980036914827076,0.2864867020738581,-0.08936565711460676,0.9588528861930952,0.884857147257623,-0.2911366132497075,-0.2911379645210501,0.5090518842924706,0.8140689501996584,0.2022969093129647,-0.1146006934634444,0.7716676226496609,0.5974271230639711,-0.1002391139795793,-0.2630177288315091,0.6215050693202134,0.4144092144444328,-0.1647096268871074,-0.5479923926325271,0.2135275888187455,1529.120879120879,802.2344322344322,813.1135531135532,822.7838827838829,812.3076923076924,-0.356384,0.017944,0.946716,14.273224,-6.587067,-21.428528,1,4,1,1,1,75.000000
2019-04-29 12:41:40.302,1.980036914827076,0.3149652075221958,0.3111291173713489,0.7625272747378021,0.884857147257623,0.01713395905362972,0.1073644230446472,0.6508230605876614,0.8140689501996584,0.3579504706496583,0.3842071202714727,0.9000175598917712,0.5974271230639711,0.06145787469275979,-0.1431894779052056,0.5431277437609481,0.4144092144444328,-0.1749270409557864,-0.7007979221288279,-0.03521112564058317,732.1245421245421,798.6080586080586,807.4725274725275,805.4578754578755,873.956043956044,-0.312866,0.187866,0.963623,5.308533,-5.787048,0.785065,1,4,1,1,1,75.000000
2019-04-29 12:41:41.302,1.980036914827076,0.1331834156472231,0.3351076522898559,0.7298100689520614,0.884857147257623,0.2132872042223268,0.0758924684209628,0.6709172763017305,0.8140689501996584,0.7014052355666065,0.4702832514129256,1.159478466274488,0.5974271230639711,0.0519088453663302,-0.08348489280923417,0.4855878957846983,0.4144092144444328,-0.2047189939434268,-0.68985017345805,-0.01479177469119078,56.81318681318682,790.1465201465202,805.8608058608058,800.2197802197802,877.5824175824176,-0.342041,0.163818,0.968201,-0.942078,1.869202,30.168915,1,4,1,1,1,75.000000
2019-04-29 12:41:42.302,1.980036914827076,-0.1222003273988205,-0.05779921452253686,0.7614172956847998,0.884857147257623,0.06913980888189764,-0.05081934655068632,0.5425107862981268,0.8140689501996584,0.6810128729075825,0.3533320730853842,1.085242414614793,0.5974271230639711,0.0507872824156409,-0.2419995667820769,0.4923096808062609,0.4144092144444328,-0.1594596388475579,-0.7940299093009453,-0.2289224053573551,127.7289377289377,792.967032967033,799.0109890109891,811.0989010989011,780.4761904761905,-0.316223,0.135681,0.940735,-7.588959,0.336456,31.813812,1,4,1,1,1,75.000000
2019-04-29 12:41:42.414,,,,,,,,,,,,,,,,,,,,,,,,,,,,,,,,,,,,,,/muse/elements/blink
2019-04-29 12:41:43.302,1.980036914827076,0.2596216558718101,0.5196524134169462,1.169345813657166,0.884857147257623,0.2113362758003489,0.04572279433646671,0.4282663125317284,0.8140689501996584,0.1873960390145863,0.2923629008426809,0.8435109423951856,0.5974271230639711,0.004772949793562853,-0.1959777249784504,0.4291780267915323,0.4144092144444328,-0.1257042852299078,-0.6868235322214591,-0.2731135187679874,78.57142857142857,800.2197802197802,811.5018315018315,788.9377289377289,826.8131868131868,-0.498779,0.211060,0.871277,7.686157,-9.974060,-14.527435,1,4,1,1,1,75.000000
2019-04-29 12:41:44.310,1.980036914827076,0.4127143941250855,0.6424449612575297,1.285272295664841,0.884857147257623,0.2682440091677947,0.1601330654227505,0.4099174959123644,0.8140689501996584,0.2488286767367958,0.5166852352941952,0.848191034061753,0.5974271230639711,0.02330486368792095,-0.2087416211454861,0.809885571418601,0.4144092144444328,-0.1797211052815288,-0.6424627643515363,0.3451696704782041,1625.421245421245,807.4725274725275,790.5494505494506,776.8498168498169,668.8644688644689,-0.417664,-0.094543,0.914551,15.798492,-10.871277,-43.851471,1,4,1,1,1,75.000000
2019-04-29 12:41:45.314,1.980036914827076,0.5510775121967917,0.2058234135090256,1.2395079596369,0.884857147257623,0.27147384486048,-0.06327349166531197,0.769606153982051,0.8140689501996584,0.6280857007844018,0.5015139383973861,1.089222670840633,0.5974271230639711,0.1896369631393111,-0.1307168718190924,0.5749066276395163,0.4144092144444328,-0.1160608881791308,-0.4370888680223827,0.1649714990056331,62.85714285714286,802.2344322344322,811.0989010989011,821.1721611721612,557.6556776556777,-0.302673,-0.012634,0.968811,16.710663,-10.684357,-25.458527,1,4,1,1,1,75.000000
2019-04-29 12:41:46.302,1.980036914827076,0.8768513096556186,0.1949232891481402,1.244813640268379,0.884857147257623,0.4695847162598861,0.1660813529977948,0.9308378112587435,0.8140689501996584,0.8118395932788882,0.4573104087208663,1.172525182547698,0.5974271230639711,0.2238181561966192,-0.05069398427625483,0.5593445552410838,0.4144092144444328,-0.08137119391693794,-0.4919358298220244,0.2050955818886223,1580.695970695971,805.0549450549451,800.6227106227107,815.934065934066,906.996336996337,-0.316223,0.070862,0.962280,0.635529,-3.499146,10.160980,1,4,1,1,1,75.000000
2019-04-29 12:41:47.316,1.980036914827076,0.8453882983456789,0.3424549964611069,1.155576475507635,0.884857147257623,0.3935664741365815,0.06470563127554764,0.9121920681662159,0.8140689501996584,0.6514941862034286,0.3030277825663709,1.132899534063464,0.5974271230639711,-0.01043813373499154,-0.1197746449995973,0.5479110132073053,0.4144092144444328,-0.4453093144501923,-0.5550423877688301,0.2514451404528527,68.90109890109891,805.8608058608058,813.1135531135532,788.5347985347986,647.5091575091575,-0.396362,-0.026428,0.933716,-4.919739,-6.101074,23.148193,1,4,1,1,1,75.000000
2019-04-29 12:41:48.302,1.980036914827076,0.6858472099173862,0.4553885819714207,1.159441585227549,0.884857147257623,0.2975605383787805,0.03116095694302591,0.9549717745637039,0.8140689501996584,0.5292834341664685,0.2074108690516325,1.19015719196616,0.5974271230639711,-0.0102897919023579,-0.2063277913390501,0.6753701884079825,0.4144092144444328,-0.4127059334461583,-0.6601181634558027,0.3480791041426124,0,797.3992673992674,796.996336996337,796.1904761904763,508.9010989010989,-0.423950,-0.027222,0.919739,1.405640,-2.998199,25.854797,1,4,1,1,1,75.000000
2019-04-29 12:41:49.303,1.980036914827076,0.2211860855262852,0.3187977824039582,0.6141892354232662,0.884857147257623,0.07455359113537117,-0.2164777615273503,0.8002796694091825,0.8140689501996584,0.102778068689576,0.011759018221643,1.228201028936219,0.5974271230639711,-0.01357700500146056,-0.09583982918094254,0.910091025988134,0.4144092144444328,-0.3517667038527398,-0.411357821370069,0.3502460772839178,0,807.8754578754579,778.8644688644689,797.8021978021978,576.1904761904763,-0.382996,0.265259,0.903748,-7.955322,-0.897217,16.314392,1,4,1,1,1,75.000000
2019-04-29 12:41:50.309,1.980036914827076,0.4573139859621747,0.4845916008282721,1.088747418121227,0.884857147257623,0.2834604395656455,0.04966756313889965,0.63783149664664,0.8140689501996584,1.008922052350726,0.3568003909947762,1.222392848386338,0.5974271230639711,0.8437678084413027,0.4924013792248049,0.9396117139069319,0.4144092144444328,0.2136524225786497,0.639244605618555,0.5279754128437695,417.8388278388279,803.040293040293,797.3992673992674,794.1758241758242,779.6703296703297,-0.391296,0.068665,0.946716,7.416992,-10.706787,-31.851196,1,4,1,1,1,75.000000
2019-04-29 12:41:51.234,,,,,,,,,,,,,,,,,,,,,,,,,,,,,,,,,,,,,,/muse/elements/blink
2019-04-29 12:41:51.312,1.980036914827076,0.3619397523888667,0.4309130060344021,1.271996975863564,0.884857147257623,0.2053402747672237,-0.04957060820906357,0.6054643255232219,0.8140689501996584,1.008922052350726,0.5768415294183032,0.8681968499288883,0.5974271230639711,0.9026077376806851,0.1951466561643637,0.6051727315278417,0.4144092144444328,0.3323279551847093,0.2383568306369201,0.3732544894133061,749.4505494505495,801.8315018315019,801.8315018315019,823.1868131868132,638.2417582417582,-0.344299,0.007507,0.986633,14.213409,-6.759033,-30.789490,1,4,1,1,1,75.000000
2019-04-29 12:41:51.869,,,,,,,,,,,,,,,,,,,,,,,,,,,,,,,,,,,,,,/muse/elements/blink
2019-04-29 12:41:52.302,1.980036914827076,0.8278792144271323,0.3231963022917666,1.182036075963289,0.884857147257623,0.5838806952698132,0.1194807952323915,0.4665116557543545,0.8140689501996584,0.7139045993390793,0.5304123853306478,0.6093297353847239,0.5974271230639711,0.2362934521250467,-0.1852623059306113,0.3711201284757069,0.4144092144444328,-0.1227014242966453,-0.5545749743874065,0.08623857874402571,2.014652014652015,799.8168498168499,808.6813186813187,804.2490842490843,660.4029304029305,-0.393982,0.153687,0.929016,-4.433746,-1.278534,18.108826,1,4,1,1,1,75.000000
2019-04-29 12:41:52.584,,,,,,,,,,,,,,,,,,,,,,,,,,,,,,,,,,,,,,/muse/elements/blink
2019-04-29 12:41:53.302,1.980036914827076,0.8606817082575612,0.6724527603987143,1.164488956189373,0.884857147257623,0.5104844026418577,0.2767365609514976,0.4882458306509441,0.8140689501996584,0.7798557629626843,0.3112330336628257,0.5979543074718759,0.5974271230639711,0.5576952303828925,-0.01826886720797497,0.3472672095576493,0.4144092144444328,0.3428611892379215,-0.4218521106226151,0.0964625096754894,133.3699633699634,805.0549450549451,803.4432234432235,795.3846153846154,885.6410256410256,-0.453064,0.110779,0.908508,-8.777771,-6.078644,16.890106,1,4,1,1,1,75.000000
2019-04-29 12:41:54.305,1.980036914827076,0.5489508896857993,0.4711284025186647,1.006998303260472,0.884857147257623,-0.05508146454789299,0.06020391967557873,0.8171668902211539,0.8140689501996584,0.6371886994073617,0.3806511619415346,1.104507240649154,0.5974271230639711,0.4928435712238234,0.02415535731289926,0.7366713272593455,0.4144092144444328,0.3344262104096286,-0.4571991154751328,0.409635314440768,485.9340659340659,798.6080586080586,795.3846153846154,793.3699633699634,649.1208791208792,-0.330872,0.020630,0.953735,-3.267365,-1.966400,27.447357,1,4,1,1,1,75.000000
2019-04-29 12:41:55.302,1.980036914827076,0.2103101683049617,0.3835278950923066,0.8944793940512252,0.884857147257623,-0.2640328579399701,-0.02258405233086652,0.7984738362834696,0.8140689501996584,0.1935698790866845,0.2572418344851367,1.059093415583952,0.5974271230639711,-0.09939861926965306,-0.1423953215383941,0.6874666157586874,0.4144092144444328,-0.4057894450667675,-0.5697512028949218,0.2074801665423264,1034.322344322344,801.4285714285714,803.040293040293,802.6373626373627,660,-0.364441,0.136414,0.934082,7.656250,-4.560852,-20.643463,1,4,1,1,1,75.000000
2019-04-29 12:41:56.302,1.980036914827076,0.2815418547639492,0.3781623985289947,0.6215752798489943,0.884857147257623,0.04240452326626667,0.1362454781454873,0.7366545772557831,0.8140689501996584,0.3454109344896057,0.4467826651322183,0.962666377393982,0.5974271230639711,-0.1347621245837347,-0.05315130612669659,0.431305273531654,0.4144092144444328,-0.398384839177086,-0.4498434633610329,0.1195452168501258,0,796.996336996337,794.1758241758242,803.4432234432235,966.2271062271062,-0.287170,0.020203,0.976013,16.404114,-12.022705,-40.741119,1,4,1,1,1,75.000000
2019-04-29 12:41:57.305,1.980036914827076,0.05256705413604997,0.300290212106829,0.7436043599565225,0.884857147257623,-0.03931708103945265,0.2196380580187068,0.6383285386867764,0.8140689501996584,0.3382810691582285,0.5271034543239412,1.01175270986742,0.5974271230639711,-0.05359241001798282,-0.1104413273958459,0.4139913098624777,0.4144092144444328,-0.3467190068082527,-0.4485474980797615,-0.06942723099887455,525.4212454212454,800.2197802197802,791.7582417582418,790.5494505494506,591.5018315018315,-0.290710,0.040466,0.980164,12.740479,-3.125305,-20.703278,1,4,1,1,1,75.000000
2019-04-29 12:41:57.986,,,,,,,,,,,,,,,,,,,,,,,,,,,,,,,,,,,,,,/muse/elements/blink
2019-04-29 12:41:58.309,1.980036914827076,0.2543855323033876,0.2446708293873106,1.063356797225219,0.884857147257623,0.06641457304347997,-0.1070885942447129,0.6977287201394403,0.8140689501996584,0.4149227085483952,0.6268851752669116,1.00420390002625,0.5974271230639711,0.04319690311095021,-0.04658940458257239,0.6069048169067827,0.4144092144444328,-0.1429944043199557,-0.6229858800735701,-0.100398417209383,0,805.0549450549451,808.6813186813187,809.8901098901099,751.8681318681319,-0.312195,0.101624,0.958313,-0.336456,-2.654266,7.566528,1,4,1,1,1,75.000000
2019-04-29 12:41:59.302,1.980036914827076,0.3198495229024172,0.454665238015069,0.8506553912203607,0.884857147257623,0.107454144750124,0.1177226215021642,0.5140361330002722,0.8140689501996584,0.4392762493143383,0.8285454538448577,0.8789927206502378,0.5974271230639711,0.2025780919094492,0.4061775384752772,0.6937461659804498,0.4144092144444328,-0.03719260421732493,-0.01606860988691663,0.145866451874373,386.4102564102564,795.3846153846154,796.1904761904763,809.8901098901099,765.5677655677656,-0.339600,-0.013977,0.960266,-3.274841,-6.587067,18.751831,1,4,1,1,1,75.000000
2019-04-29 12:42:00.304,1.980036914827076,0.00294748301322168,0.6427965468447219,0.8155560863237575,0.884857147257623,-0.1474673017656273,0.1769002696819777,0.6075845035695564,0.8140689501996584,0.1619640573012064,0.8285454538448577,0.9178982894792616,0.5974271230639711,0.02021042572138474,0.3501602079085708,0.8154193469398506,0.4144092144444328,-0.009768575286001328,-0.08413285925889141,0.1646073168369191,0,804.2490842490843,787.7289377289378,782.4908424908425,624.1391941391942,-0.311340,-0.012207,0.959534,-3.297272,-3.992615,32.785797,1,4,1,1,1,75.000000
2019-04-29 12:42:01.311,1.980036914827076,0.06196959513220814,0.7168258211629799,1.111765275453475,0.884857147257623,0.04256500999730496,0.2373977760488582,0.7816362164144229,0.8140689501996584,0.09867340247286419,0.1771829697799605,1.066265571105829,0.5974271230639711,-0.01192067761698932,-0.1750474618353566,1.192123796901813,0.4144092144444328,-0.09305126140706678,-0.6903658604070888,0.4596497690532659,538.7179487179487,818.7545787545788,800.2197802197802,799.0109890109891,739.7802197802198,-0.378113,0.148621,0.887451,11.110535,-6.871185,-5.091705,1,4,1,1,1,75.000000
2019-04-29 12:42:02.121,,,,,,,,,,,,,,,,,,,,,,,,,,,,,,,,,,,,,,/muse/elements/blink
2019-04-29 12:42:02.314,1.980036914827076,0.6136442873277198,0.6804357384308177,1.334756010458176,0.884857147257623,0.1446182142608096,0.2569539935450031,1.205733271461991,0.8140689501996584,0.3446626218166473,0.2976160868029162,1.436352298227049,0.5974271230639711,0.07480142857221518,-0.009644943152283394,1.166350028822249,0.4144092144444328,-0.1280796573299131,-0.4667925848681808,0.7103171964246848,411.3919413919414,803.8461538461539,794.981684981685,808.2783882783883,1086.703296703297,-0.326538,-0.073792,0.856262,5.061798,-27.813721,-37.137299,1,4,1,1,1,75.000000
2019-04-29 12:42:03.149,,,,,,,,,,,,,,,,,,,,,,,,,,,,,,,,,,,,,,/muse/elements/blink
2019-04-29 12:42:03.304,1.980036914827076,0.5915921500817362,0.6989581096348304,1.304741577767819,0.884857147257623,0.208520115111087,0.2737789001226942,1.270854329267048,0.8140689501996584,0.4488447392431203,0.3896096743154145,1.403505232171387,0.5974271230639711,0.062904522984236,-0.01406307383596845,1.011417976595854,0.4144092144444328,-0.1477084101948684,-0.3556366130172012,0.6998802429124187,507.2893772893773,780.4761904761905,809.4871794871796,844.9450549450549,678.1318681318681,-0.298462,0.074341,0.962524,13.233948,-8.478699,15.835876,1,4,1,1,1,75.000000
2019-04-29 12:42:03.768,,,,,,,,,,,,,,,,,,,,,,,,,,,,,,,,,,,,,,/muse/elements/blink
2019-04-29 12:42:04.301,1.980036914827076,1.047706968672899,0.6298261795002308,1.304741577767819,0.884857147257623,0.4517382358586776,0.3658183608302063,1.270854329267048,0.8140689501996584,0.4208890167006621,0.4954554088448052,1.403505232171387,0.5974271230639711,0.1702215611828603,0.01997945290986249,1.011417976595854,0.4144092144444328,-0.1636605698558975,-0.5194442117970086,0.6998802429124187,18.13186813186813,808.6813186813187,809.0842490842491,823.1868131868132,688.2051282051282,-0.369385,0.094116,0.931641,3.805695,-10.848846,0.740204,1,4,1,1,1,75.000000
2019-04-29 12:42:04.729,,,,,,,,,,,,,,,,,,,,,,,,,,,,,,,,,,,,,,/muse/elements/blink
2019-04-29 12:42:05.302,1.980036914827076,0.8903487461032104,0.7334168744855364,1.304741577767819,0.884857147257623,0.2759369111687142,0.4367486553323381,1.270854329267048,0.8140689501996584,0.5209945834711794,0.5588402951698943,1.403505232171387,0.5974271230639711,0.2874244077814613,0.1794693823302524,1.011417976595854,0.4144092144444328,0.06406476376417909,-0.2039628472341302,0.6998802429124187,495.2014652014652,799.8168498168499,807.4725274725275,745.0183150183151,1160.03663003663,-0.262329,0.093079,0.973328,4.224396,-10.789032,-1.181335,1,4,1,1,2,75.000000
2019-04-29 12:42:05.584,,,,,,,,,,,,,,,,,,,,,,,,,,,,,,,,,,,,,,/muse/elements/blink
2019-04-29 12:42:06.057,,,,,,,,,,,,,,,,,,,,,,,,,,,,,,,,,,,,,,/muse/elements/blink
2019-04-29 12:42:06.313,1.980036914827076,0.9260063762031355,0.7551275838217074,1.304741577767819,0.884857147257623,0.551545082728256,0.4091173795052748,1.270854329267048,0.8140689501996584,0.5255524509775525,0.4518331645006717,1.403505232171387,0.5974271230639711,0.2307426981038378,-0.01232182562217042,1.011417976595854,0.4144092144444328,-0.1403698756744718,-0.3073736099264803,0.6998802429124187,37.47252747252747,783.6996336996338,814.3223443223443,829.2307692307693,842.5274725274726,-0.263000,0.089050,0.960510,3.514099,-5.241241,-0.807495,1,4,1,1,2,75.000000
2019-04-29 12:42:06.572,,,,,,,,,,,,,,,,,,,,,,,,,,,,,,,,,,,,,,/muse/elements/blink
2019-04-29 12:42:07.302,1.980036914827076,0.9859633536056243,0.6213308628855204,1.304741577767819,0.884857147257623,0.7876757188312592,0.2839473044357337,1.270854329267048,0.8140689501996584,0.4108685798493863,0.4755368841319851,1.403505232171387,0.5974271230639711,0.21792725661354,0.02185790288223549,1.011417976595854,0.4144092144444328,-0.04936720567697554,-0.4091922671260675,0.6998802429124187,854.6153846153846,807.8754578754579,800.2197802197802,813.5164835164835,584.2490842490843,-0.334473,0.052124,0.964111,-13.996582,-10.183411,32.000732,1,4,1,1,2,75.000000
2019-04-29 12:42:07.808,,,,,,,,,,,,,,,,,,,,,,,,,,,,,,,,,,,,,,/muse/elements/blink
2019-04-29 12:42:08.321,1.980036914827076,1.375109533865099,1.072777878487118,1.304741577767819,0.884857147257623,0.9393224692221172,0.6028469361884529,1.270854329267048,0.8140689501996584,0.7053586637588466,0.4524861504398949,1.403505232171387,0.5974271230639711,0.0416281188703329,0.1613807444368105,1.011417976595854,0.4144092144444328,-0.05851392502063921,-0.1452409105231492,0.6998802429124187,0,798.6080586080586,811.9047619047619,813.1135531135532,798.2051282051282,-0.305603,0.085754,0.942322,-8.134766,-7.895508,9.480591,1,4,1,1,2,75.000000
2019-04-29 12:42:08.832,,,,,,,,,,,,,,,,,,,,,,,,,,,,,,,,,,,,,,/muse/elements/blink
2019-04-29 12:42:09.302,1.980036914827076,1.400919272241803,1.121733456406232,1.304741577767819,0.884857147257623,0.8399718056125685,0.5927821358886862,1.270854329267048,0.8140689501996584,0.5714992673059287,0.4198670891869762,1.403505232171387,0.5974271230639711,0.06492548616780892,0.1087392456358022,1.011417976595854,0.4144092144444328,-0.1965269427010192,-0.220342484447117,0.6998802429124187,523.0036630036631,806.2637362637363,803.040293040293,783.6996336996338,613.6630036630037,-0.304382,0.107788,0.955322,0.785065,-13.114319,-10.407715,1,4,1,1,2,75.000000
2019-04-29 12:42:09.358,,,,,,,,,,,,,,,,,,,,,,,,,,,,,,,,,,,,,,/muse/elements/blink
2019-04-29 12:42:10.302,1.980036914827076,1.143438898549828,0.9174067784057064,1.304741577767819,0.884857147257623,0.4309234275969294,0.5196651771041944,1.270854329267048,0.8140689501996584,0.9057481079368517,0.6234244956165368,1.403505232171387,0.5974271230639711,0.01205269057396554,0.0003663800716839945,1.011417976595854,0.4144092144444328,-0.2337853996279198,-0.3764702328332821,0.6998802429124187,563.2967032967033,794.5787545787546,801.8315018315019,810.2930402930403,632.1978021978022,-0.187256,0.127380,1.009338,5.114136,-19.237823,5.495453,1,4,1,1,2,75.000000
2019-04-29 12:42:10.654,,,,,,,,,,,,,,,,,,,,,,,,,,,,,,,,,,,,,,/muse/elements/blink
2019-04-29 12:42:11.302,1.980036914827076,0.9877070287302889,0.3332379565678653,1.304741577767819,0.884857147257623,0.2148833340403531,0.06329564323445698,1.270854329267048,0.8140689501996584,0.8754999437056996,0.5798314345455657,1.403505232171387,0.5974271230639711,0.03467984991515639,-0.01182088007873815,1.011417976595854,0.4144092144444328,-0.1546560627757827,-0.5818613270709798,0.6998802429124187,684.5787545787546,793.3699633699634,811.9047619047619,823.1868131868132,1184.212454212454,-0.276611,0.053284,0.960754,3.902893,7.790833,3.955231,1,4,1,1,2,75.000000
2019-04-29 12:42:11.781,,,,,,,,,,,,,,,,,,,,,,,,,,,,,,,,,,,,,,/muse/elements/blink
2019-04-29 12:42:12.321,1.980036914827076,1.1383136185475,0.6369087637252306,1.304741577767819,0.884857147257623,0.442020483958424,0.01937381099595071,1.270854329267048,0.8140689501996584,0.3417649361116439,0.3182537451034299,1.403505232171387,0.5974271230639711,0.1129739502120596,-0.003037866444915704,1.011417976595854,0.4144092144444328,0.06500082344522989,-0.4639404671812697,0.6998802429124187,455.3113553113553,777.2527472527473,817.1428571428571,779.2673992673992,834.0659340659341,-0.224426,0.112793,0.973267,3.940277,-7.611389,-2.198181,1,4,1,1,2,75.000000
2019-04-29 12:42:12.804,,,,,,,,,,,,,,,,,,,,,,,,,,,,,,,,,,,,,,/muse/elements/blink
2019-04-29 12:42:13.302,1.980036914827076,1.033338019191974,0.706615858678826,1.304741577767819,0.884857147257623,0.5364361053911004,0.3284496698467219,1.270854329267048,0.8140689501996584,0.3505087992326545,0.4526846506194619,1.403505232171387,0.5974271230639711,0.1300552123214823,0.1220826225029038,1.011417976595854,0.4144092144444328,-0.08313455768990732,-0.3377460753771132,0.6998802429124187,832.8571428571429,805.0549450549451,804.2490842490843,805.4578754578755,643.0769230769231,-0.231873,0.111633,0.970825,3.917847,-5.854340,-3.132782,1,4,1,1,2,75.000000
2019-04-29 12:42:14.312,1.980036914827076,0.4130842328511378,0.7949692839436706,1.182698402140079,0.884857147257623,0.05681350348944943,0.4380644565977668,0.601135001661934,0.8140689501996584,0.3668856213657228,0.4526846506194619,0.7671752385705373,0.5974271230639711,0.09710595540060014,-0.1168857980051891,0.4662822763897287,0.4144092144444328,-0.311035758826094,-0.4459921785478415,-0.1441276370351509,284.8717948717949,808.2783882783883,812.7106227106227,781.6849816849817,464.1758241758242,-0.220703,0.114197,0.974243,4.082336,-5.704803,-1.570129,1,4,1,1,1,75.000000
2019-04-29 12:42:14.590,,,,,,,,,,,,,,,,,,,,,,,,,,,,,,,,,,,,,,/muse/elements/blink
2019-04-29 12:42:15.302,1.980036914827076,0.7889342152001363,0.6136010713533859,1.182698402140079,0.884857147257623,0.3557393150640372,0.08706590915803339,0.601135001661934,0.8140689501996584,0.4085243315294164,0.383582980839563,0.7671752385705373,0.5974271230639711,0.08406596510580279,-0.1915058350310701,0.4662822763897287,0.4144092144444328,-0.4818715463915454,-0.5321853623929976,-0.1441276370351509,757.1062271062272,790.1465201465202,803.8461538461539,766.3736263736264,616.4835164835165,-0.217224,0.110168,0.975037,3.461761,-6.228180,-0.463562,1,4,1,1,1,75.000000
2019-04-29 12:42:15.560,,,,,,,,,,,,,,,,,,,,,,,,,,,,,,,,,,,,,,/muse/elements/blink
2019-04-29 12:42:15.994,,,,,,,,,,,,,,,,,,,,,,,,,,,,,,,,,,,,,,/muse/elements/blink
2019-04-29 12:42:16.306,1.980036914827076,0.9841915384780034,0.5307044843528617,0.7601060014061707,0.884857147257623,0.6269736129657912,0.1271064024041246,0.3601868307402406,0.8140689501996584,0.5789464521442087,0.4757239998171479,0.6535684360797082,0.5974271230639711,-0.1153269647047915,-0.008572657214276405,0.4736124274656066,0.4144092144444328,-0.6035099257101799,-0.5516635355549341,-0.1253140095224716,1187.435897435897,781.6849816849817,808.6813186813187,821.978021978022,760.7326007326008,-0.216492,0.115479,0.977722,4.157104,-5.757141,-0.912170,1,4,1,1,1,75.000000
2019-04-29 12:42:16.860,,,,,,,,,,,,,,,,,,,,,,,,,,,,,,,,,,,,,,/muse/elements/blink
2019-04-29 12:42:17.302,1.980036914827076,1.066120539339702,0.5614781048336863,0.7601060014061707,0.884857147257623,0.645567538786089,-0.0159943251278747,0.3601868307402406,0.8140689501996584,0.4748859306167367,0.2456691849623165,0.6535684360797082,0.5974271230639711,-0.01182388807783616,-0.0238585533911644,0.4736124274656066,0.4144092144444328,-0.21896670983172,-0.4764498313052302,-0.1253140095224716,1129.41391941392,784.9084249084249,802.2344322344322,863.4798534798535,1086.703296703297,-0.209106,0.099915,0.969727,0.388794,-1.143951,9.256287,1,4,1,1,2,75.000000
2019-04-29 12:42:17.357,,,,,,,,,,,,,,,,,,,,,,,,,,,,,,,,,,,,,,/muse/elements/blink
2019-04-29 12:42:18.302,1.980036914827076,1.268787811569232,0.914698464517323,0.7601060014061707,0.884857147257623,0.4774756099883402,0.3262666016361916,0.3601868307402406,0.8140689501996584,0.4659029069584581,0.1931374890476439,0.6535684360797082,0.5974271230639711,0.1226446760719949,-0.0876714729483174,0.4736124274656066,0.4144092144444328,-0.0199031530664368,-0.4805903017465484,-0.1253140095224716,1240.622710622711,802.6373626373627,802.6373626373627,798.2051282051282,551.6117216117216,-0.326721,0.194275,0.935669,2.773895,-5.682373,-7.588959,1,4,1,1,2,75.000000
2019-04-29 12:42:19.314,1.980036914827076,0.8227847182635999,0.4371917352085514,0.7499800748249156,0.884857147257623,0.4588711331289669,0.3030248586142716,0.09716646868674644,0.8140689501996584,0.2207170918779446,0.3829755484611297,0.2151699857819601,0.5974271230639711,0.1322466760060708,0.07841174812488592,0.1212481724660587,0.4144092144444328,0.04666625122346076,-0.04715434756289531,0.03524755749922216,13.2967032967033,811.0989010989011,799.4139194139194,819.1575091575091,622.1245421245421,-0.346680,0.132874,0.927307,2.108459,-4.635620,-12.979736,1,4,1,1,1,75.000000
2019-04-29 12:42:20.314,1.980036914827076,0.8284137236811481,0.03845250241322415,1.040014636500318,0.884857147257623,0.5498002421459786,0.08708781546911164,0.209451749793691,0.8140689501996584,0.09685695186613395,0.4366401040624798,0.692196004417026,0.5974271230639711,0.1517951622731107,0.02730770073669013,0.5768079485435529,0.4144092144444328,-0.05364454833429086,-0.2076774747756707,0.3027880343676571,1105.238095238095,794.1758241758242,811.9047619047619,819.5604395604396,743.0036630036631,-0.350952,0.091919,0.940857,2.811279,-6.714172,-0.643005,1,4,1,1,1,75.000000
2019-04-29 12:42:21.210,,,,,,,,,,,,,,,,,,,,,,,,,,,,,,,,,,,,,,/muse/elements/blink
2019-04-29 12:42:21.319,1.980036914827076,0.4333875397932295,0.5793946569861533,1.060009067038942,0.884857147257623,0.1964614795119975,0.2598393644656263,0.4030656536439485,0.8140689501996584,0.2254689810048925,0.5556794829062576,0.794373871822491,0.5974271230639711,0.08626388245033571,-0.2373162302889564,0.461915919955856,0.4144092144444328,-0.1920110229105446,-0.4463885830875455,0.2573638828655712,323.956043956044,801.025641025641,805.8608058608058,801.4285714285714,769.1941391941392,-0.347046,0.102905,0.944702,5.458069,-4.897308,-1.173859,1,4,1,1,1,75.000000
2019-04-29 12:42:22.309,1.980036914827076,0.7121535972822639,0.7480773027909289,0.894490027278239,0.884857147257623,0.2511906302591634,0.2779952446503657,0.5881585095529199,0.8140689501996584,0.2695600100881985,0.5579412894185147,0.7012266921405466,0.5974271230639711,0.04641101833196429,-0.02726178446231956,0.420401499696356,0.4144092144444328,-0.2174614418625768,-0.5548459097056364,0.1831593074443676,58.82783882783883,802.6373626373627,799.4139194139194,848.5714285714286,814.7252747252747,-0.337463,0.134583,0.923950,0.246735,-21.062164,-39.163513,1,4,1,1,1,75.000000
2019-04-29 12:42:22.339,,,,,,,,,,,,,,,,,,,,,,,,,,,,,,,,,,,,,,/muse/elements/blink
2019-04-29 12:42:23.302,1.980036914827076,1.471247089322494,0.8454966277455382,0.894490027278239,0.884857147257623,0.251233305479944,-0.1101021611363052,0.5881585095529199,0.8140689501996584,0.3573686448075795,0.3301743714145096,0.7012266921405466,0.5974271230639711,0.01331269739310169,0.01472605142345929,0.420401499696356,0.4144092144444328,-0.348118172337168,-0.6029515935343762,0.1831593074443676,1626.227106227106,804.2490842490843,800.2197802197802,806.6666666666667,838.0952380952381,-0.358887,0.002747,0.943542,2.960815,-5.644989,-1.547699,1,4,1,1,1,75.000000
2019-04-29 12:42:23.646,,,,,,,,,,,,,,,,,,,,,,,,,,,,,,,,,,,,,,/muse/elements/blink
2019-04-29 12:42:24.310,1.980036914827076,0.9630923516435236,0.6060170526359763,1.333691264341587,0.884857147257623,0.2830947521954497,-0.08294466882139209,0.5399584102840308,0.8140689501996584,0.2921675762769242,0.2760207476653805,0.8265789664408,0.5974271230639711,-0.01013279757483545,-0.002192083541610523,0.4954678339703742,0.4144092144444328,-0.3411318417377802,-0.5650354433454401,-0.1345077893925725,45.53113553113553,792.1611721611722,788.5347985347986,815.5311355311355,579.4139194139194,-0.373901,-0.071655,0.922546,1.233673,-2.407532,0.777588,1,4,1,1,1,75.000000
2019-04-29 12:42:25.311,1.980036914827076,0.713217468589025,0.4639798975724476,1.35834678080146,0.884857147257623,0.3224326948195692,0.04739783893051067,0.4966952784727232,0.8140689501996584,0.2370427771463851,0.277698737816667,0.8915466678679554,0.5974271230639711,0.04717194368621041,0.04382164545079604,0.5204478954834942,0.4144092144444328,-0.1248460322866593,-0.3849487494291488,0.009108335945751524,55.2014652014652,803.4432234432235,808.6813186813187,826.8131868131868,631.7948717948718,-0.367188,0.000183,0.945679,3.715973,-10.003967,2.086029,1,4,1,1,1,75.000000
2019-04-29 12:42:25.790,,,,,,,,,,,,,,,,,,,,,,,,,,,,,,,,,,,,,,/muse/elements/blink
2019-04-29 12:42:26.313,1.980036914827076,0.5109390174473051,0.3746919006204575,1.35834678080146,0.884857147257623,0.2996562459795375,0.2946271331478387,0.4966952784727232,0.8140689501996584,0.1863972948276911,0.3711899423341058,0.8915466678679554,0.5974271230639711,0.06633576138229076,0.01087542189881154,0.5204478954834942,0.4144092144444328,-0.02061212993237623,-0.2567147495491368,0.009108335945751524,1625.824175824176,803.040293040293,807.0695970695971,812.3076923076924,704.7252747252747,-0.319702,-0.008484,0.953979,4.673004,-7.387085,-3.783264,1,4,1,1,2,75.000000
2019-04-29 12:42:26.991,,,,,,,,,,,,,,,,,,,,,,,,,,,,,,,,,,,,,,/muse/elements/blink
2019-04-29 12:42:27.302,1.980036914827076,0.3496164335960068,0.2939933290090667,1.35834678080146,0.884857147257623,0.2788533478146186,0.2493785415145248,0.4966952784727232,0.8140689501996584,0.1228359234154978,0.3304814081788163,0.8915466678679554,0.5974271230639711,0.02875145337394025,0.003796227274851524,0.5204478954834942,0.4144092144444328,-0.1630463984033909,-0.4781149578312795,0.009108335945751524,1289.377289377289,802.2344322344322,808.2783882783883,805.8608058608058,847.7655677655678,-0.321533,-0.004272,0.959167,4.261780,-5.293579,3.454285,1,4,1,1,2,75.000000
2019-04-29 12:42:27.737,,,,,,,,,,,,,,,,,,,,,,,,,,,,,,,,,,,,,,/muse/elements/blink
2019-04-29 12:42:28.302,1.980036914827076,0.7460472618975637,0.4877258839928816,1.35834678080146,0.884857147257623,0.1200743781174111,0.2999972283406688,0.4966952784727232,0.8140689501996584,0.2808267035664048,0.208440228469382,0.8915466678679554,0.5974271230639711,0.01490980412077038,0.06241748352812915,0.5204478954834942,0.4144092144444328,-0.1904805050359002,-0.5945010077546979,0.009108335945751524,798.6080586080586,798.2051282051282,822.7838827838829,793.7728937728938,615.2747252747253,-0.304138,-0.032410,0.961243,1.069183,-7.544098,2.893524,1,4,1,1,2,75.000000
2019-04-29 12:42:28.868,,,,,,,,,,,,,,,,,,,,,,,,,,,,,,,,,,,,,,/muse/elements/blink
2019-04-29 12:42:29.302,1.980036914827076,0.5546231256456023,0.9828728710021288,1.35834678080146,0.884857147257623,0.1441298756014683,0.1784072778461862,0.4966952784727232,0.8140689501996584,0.5302898240998813,0.3481045180228395,0.8915466678679554,0.5974271230639711,0.03716261456339443,-0.02679513536622906,0.5204478954834942,0.4144092144444328,-0.2029882414222486,-0.7036929270188494,0.009108335945751524,775.2380952380953,800.6227106227107,792.5641025641025,806.2637362637363,1158.021978021978,-0.328918,-0.073792,0.954407,2.676697,-2.803802,-9.525452,1,4,1,1,2,75.000000
2019-04-29 12:42:29.765,,,,,,,,,,,,,,,,,,,,,,,,,,,,,,,,,,,,,,/muse/elements/blink
2019-04-29 12:42:30.303,1.980036914827076,0.7909941908092162,0.7402639596824832,1.35834678080146,0.884857147257623,0.3804085702162375,0.344177496357775,0.4966952784727232,0.8140689501996584,0.6473444879814738,0.5756191569598459,0.8915466678679554,0.5974271230639711,-0.09580626035476422,-0.2943844486703406,0.5204478954834942,0.4144092144444328,-0.3806634047921688,-0.6268007405896839,0.009108335945751524,102.7472527472527,807.8754578754579,808.2783882783883,812.7106227106227,689.8168498168499,-0.266479,-0.115356,0.960754,1.884155,-9.719849,-1.943970,1,4,1,1,2,75.000000
2019-04-29 12:42:30.860,,,,,,,,,,,,,,,,,,,,,,,,,,,,,,,,,,,,,,/muse/elements/blink
2019-04-29 12:42:31.302,1.980036914827076,0.8452194477135655,0.6233558952276067,1.35834678080146,0.884857147257623,0.4913247632894344,0.2932138085536862,0.4966952784727232,0.8140689501996584,0.6074847410446536,0.5520535215253501,0.8915466678679554,0.5974271230639711,-0.06600579742611783,-0.128748432753877,0.5204478954834942,0.4144092144444328,-0.2639425768527255,-0.579025679461831,0.009108335945751524,0,790.1465201465202,802.6373626373627,803.4432234432235,637.4358974358975,-0.276245,-0.162476,0.959717,5.233765,-8.374023,-2.646790,1,4,1,1,2,75.000000
2019-04-29 12:42:31.792,,,,,,,,,,,,,,,,,,,,,,,,,,,,,,,,,,,,,,/muse/elements/blink
2019-04-29 12:42:32.302,1.980036914827076,0.3993109869938117,0.7239997731880442,1.35834678080146,0.884857147257623,0.2129151071792867,0.4121911216787061,0.4966952784727232,0.8140689501996584,0.01829369548252663,0.2241514136891184,0.8915466678679554,0.5974271230639711,-0.003679677152497201,-0.07674455831557743,0.5204478954834942,0.4144092144444328,-0.3404262853984275,-0.66343156296266,0.009108335945751524,1626.227106227106,815.934065934066,815.1282051282052,686.5934065934066,757.1062271062272,-0.286743,-0.176025,0.936523,15.148010,-0.000000,-5.630035,1,4,1,1,2,75.000000
2019-04-29 12:42:32.495,,,,,,,,,,,,,,,,,,,,,,,,,,,,,,,,,,,,,,/muse/elements/blink
2019-04-29 12:42:33.304,1.980036914827076,0.6708100141326453,0.4858987664748321,1.35834678080146,0.884857147257623,0.4861050384507836,0.3870603096108927,0.4966952784727232,0.8140689501996584,0.3825377554457886,0.2704427404354071,0.8915466678679554,0.5974271230639711,0.006871075275934221,-0.05841148381760762,0.5204478954834942,0.4144092144444328,-0.3667355054088166,-0.692223981542728,0.009108335945751524,1633.076923076923,803.4432234432235,808.2783882783883,809.4871794871796,653.5531135531136,-0.318970,-0.052002,0.958130,4.269257,-3.342133,-1.958923,1,4,1,1,2,75.000000
2019-04-29 12:42:34.302,1.980036914827076,1.113484756743212,0.7354538729776794,1.145326146220869,0.884857147257623,0.6500900368002713,0.3183098343775781,0.7426635713226076,0.8140689501996584,0.6905675669882947,0.3717845087747638,0.7336861375774368,0.5974271230639711,-0.07293061258683858,-0.09407523264705892,0.5791809921966191,0.4144092144444328,-0.3787164773270471,-0.5914952913511552,-0.001972471553659667,789.7435897435897,770.8058608058608,829.6336996336996,819.5604395604396,666.4468864468864,-0.311401,-0.049194,0.955933,4.089813,-5.166473,0.448608,1,4,1,1,1,75.000000
2019-04-29 12:42:35.303,1.980036914827076,1.428126966748058,1.250354551166113,1.231726325156241,0.884857147257623,0.8035950696374079,0.5803825567957082,0.6413404990917917,0.8140689501996584,0.7803348860335865,0.2895364683065534,0.7366794986084427,0.5974271230639711,-0.04557608541862596,-0.2319347207044375,0.3887820199368455,0.4144092144444328,-0.3735738921644156,-0.5480192408055879,0.04544484655888794,725.2747252747253,803.8461538461539,799.0109890109891,811.9047619047619,1176.959706959707,-0.313599,-0.047974,0.961182,4.276733,-6.579590,-1.076660,1,4,1,1,1,75.000000
2019-04-29 12:42:35.640,,,,,,,,,,,,,,,,,,,,,,,,,,,,,,,,,,,,,,/muse/elements/blink
