TimeStamp,Delta_TP9,Delta_AF7,Delta_AF8,Delta_TP10,Theta_TP9,Theta_AF7,Theta_AF8,Theta_TP10,Alpha_TP9,Alpha_AF7,Alpha_AF8,Alpha_TP10,Beta_TP9,Beta_AF7,Beta_AF8,Beta_TP10,Gamma_TP9,Gamma_AF7,Gamma_AF8,Gamma_TP10,RAW_TP9,RAW_AF7,RAW_AF8,RAW_TP10,AUX_RIGHT,Accelerometer_X,Accelerometer_Y,Accelerometer_Z,Gyro_X,Gyro_Y,Gyro_Z,HeadBandOn,HSI_TP9,HSI_AF7,HSI_AF8,HSI_TP10,Battery,Elements
49:11.9,1.103072928,0.028232425,-0.390173238,0.384227796,0.413653682,-0.192348544,-0.288470364,0.289252741,0.869712746,0.206249758,0.019005123,0.512225717,0.538723833,0.41131672,0.555014387,0.608743029,0.28211299,0.582267994,0.769726632,0.472461278,819.96337,816.7399267,802.6373626,812.7106227,588.2783883,-0.383972,0.12207,0.924011,3.678589,-6.796417,-2.257996,1,1,1,1,1,75,
49:12.9,1.096687028,-0.289246551,-0.316257812,0.067391431,0.17351178,-0.280713174,-0.239410176,0.077759816,0.827202809,0.163541317,0.036920651,0.662576891,0.611522677,0.401940412,0.609240989,0.789442295,0.262801554,0.636758024,0.736751834,0.591780199,833.2600733,799.010989,805.8608059,817.5457875,762.3443223,-0.395203,0.121338,0.922363,4.142151,-8.351593,-0.800018,1,1,1,1,1,75,
49:13.9,1.005700835,-0.141333866,-0.598335948,0.074801645,0.367305069,-0.117122687,-0.541832227,0.071933054,0.673093742,0.156263613,0.097064111,0.696859936,0.544582731,0.297810264,0.57568381,0.58320757,0.151986927,0.619030415,0.470933188,0.388922632,714.3956044,826.007326,744.2124542,679.3406593,877.5824176,-0.380493,0.124146,0.92572,4.029999,-6.564636,-1.435547,1,1,1,1,1,75,
49:14.1,,,,,,,,,,,,,,,,,,,,,,,,,,,,,,,,,,,,,,/muse/elements/blink
49:14.9,0.689965672,0.647321059,1.022974231,-0.016358821,0.465844723,0.226688934,0.374727667,0.12290254,0.499129077,0.459250004,0.433866933,0.510363822,0.668037076,0.515527163,0.610970456,0.561885132,0.174203219,0.561562215,0.245462302,0.299131625,825.2014652,814.3223443,784.5054945,813.5164835,737.7655678,-0.375916,0.11731,0.92926,3.992615,-7.402039,-2.265472,1,1,1,1,1,75,
49:15.9,0.438064599,0.461270525,0.764121386,0.211427921,0.308072555,0.026999659,0.133997497,-0.251068663,0.869205156,0.426932834,0.362143776,0.268488805,0.624828332,0.4960261,0.606004543,0.718617981,0.420430178,0.642194274,0.246099482,0.566143412,800.6227106,794.981685,792.1611722,816.7399267,1046.813187,-0.386475,0.124756,0.924805,4.560852,-6.721649,-0.605621,1,1,1,1,1,75,
49:16.9,0.274245954,0.138341307,-0.056672318,0.16203214,0.320331622,-0.125238875,-0.10778795,0.171839925,0.547081707,-0.013249392,-0.083419408,0.585837232,0.548384838,0.37146241,0.553086473,0.601351721,0.333436329,0.696807615,0.415101588,0.546850505,824.3956044,811.5018315,779.6703297,827.6190476,938.021978,-0.383423,0.12207,0.922913,3.970184,-7.230072,-2.063599,1,1,1,1,1,75,
49:17.9,0.773644806,0.095904792,0.193044211,0.273974119,0.54112978,-0.129392789,-0.11513367,0.391631178,0.821088537,-0.08412481,-0.057660543,0.633961765,0.562431973,0.363211304,0.442092721,0.494941718,0.137407986,0.669440633,0.332086293,0.2750156,833.6630037,802.2344322,800.6227106,815.5311355,974.6886447,-0.382812,0.120239,0.927124,3.678589,-7.245026,-1.472931,1,1,1,1,1,75,
49:18.9,1.060321433,-0.110854182,-0.090567655,0.442657359,0.685431046,-0.117149648,-0.310311318,0.23731301,0.814919657,0.116768072,0.006861506,0.716186975,0.506552767,0.533533516,0.400608829,0.608516676,0.022594125,0.687878393,0.529864309,0.122564704,823.992674,803.8461538,798.6080586,831.6483516,892.4908425,-0.382629,0.120789,0.930847,3.521576,-8.045044,-1.772003,1,1,1,1,1,75,
49:19.9,1.34633258,-0.109457439,-0.075593806,0.697529721,0.879101543,0.044635351,-0.539083484,0.35033997,0.902277939,0.229864152,0.116713959,0.688356435,0.592633228,0.397782272,0.552928678,0.551006491,0.364751281,0.678428225,0.54950596,0.097365753,816.7399267,819.1575092,798.6080586,830.8424908,794.1758242,-0.378845,0.117126,0.930115,4.254303,-6.706696,-1.996307,1,1,1,1,1,75,
49:20.9,1.419125828,-0.006519133,0.428104854,0.843681493,0.890166638,-0.087281734,-0.223716785,0.471782148,0.99546235,0.11168813,0.048596177,0.783260552,0.674553545,0.417211794,0.638263162,0.90032876,0.415317692,0.614011844,0.295973049,0.677341059,826.4102564,806.6666667,793.3699634,826.8131868,706.3369963,-0.38385,0.122559,0.925537,3.603821,-6.280518,-1.958923,1,1,1,1,1,75,
49:21.9,1.13420706,0.230944477,0.525724739,0.808346071,0.542705646,-0.000115978,-0.144701157,0.321767126,0.86811177,0.012012454,-0.001375433,0.746249228,0.514385449,0.539943116,0.610391904,0.780362244,0.244274023,0.600669123,0.091994897,0.642548707,820.7692308,804.2490842,794.981685,809.0842491,942.4542125,-0.38623,0.120544,0.92627,3.940277,-7.170258,-1.181335,1,1,1,1,1,75,
49:22.9,1.026849856,0.183176001,0.015050293,0.309578597,0.549453534,-0.022197885,-0.139130974,0.208384813,0.96173885,0.010792588,0.243651939,0.528165364,0.54056437,0.412591673,0.460270545,0.343001381,0.076313098,0.532750309,-0.014715519,0.250973193,824.7985348,811.0989011,799.4139194,811.0989011,642.6739927,-0.380127,0.12146,0.926392,3.850555,-6.721649,-1.839294,1,1,1,1,1,75,
49:23.9,0.8068421,-0.296753176,0.09621589,0.428973073,0.478068248,-0.292687001,-0.13419832,0.440066963,1.349187725,0.723544552,0.266525092,0.61190122,0.757008621,0.380017776,0.557354468,0.648133929,0.198828218,0.580450898,0.11291516,0.272419127,826.007326,811.0989011,796.1904762,800.2197802,735.3479853,-0.37793,0.12677,0.928467,4.344025,-6.938477,-1.323395,1,1,1,1,1,75,
49:24.9,0.614814419,-0.061899534,0.080080671,0.638446795,0.655614465,-0.080493206,-0.301194538,0.47564472,1.332596208,0.737661987,-0.010626404,0.981122999,0.763399878,0.284664658,0.535488088,0.914387373,0.244237884,0.575066761,0.385851618,0.504252147,811.0989011,790.952381,801.4285714,816.7399267,915.0549451,-0.380676,0.122314,0.923828,3.386993,-7.110443,-2.220612,1,1,1,1,1,75,
49:25.9,0.419293581,-0.190480056,-0.246956769,0.579925445,0.573353445,-0.089933031,-0.410205518,0.294800888,0.907200451,0.074485865,-0.036811247,0.959393599,0.557023372,0.36585478,0.568227413,0.621282362,0.21221483,0.67358219,0.544239396,0.462279553,807.0695971,815.1282051,788.1318681,810.6959707,828.4249084,-0.384644,0.12439,0.927124,3.895416,-7.775879,-1.143951,1,1,1,1,1,75,
49:26.9,0.260664641,-0.212659478,-0.412307866,0.413173662,0.255250211,-0.401347137,-0.609796337,0.143886767,0.92612766,0.05378353,-0.042736497,0.64309859,0.603537324,0.415890308,0.583017224,0.451766973,0.283353506,0.692311023,0.564772728,0.24868012,793.7728938,813.9194139,783.6996337,800.6227106,765.970696,-0.380066,0.117981,0.927612,3.887939,-7.050629,-1.121521,1,1,1,1,1,75,
49:27.9,0.359169178,-0.190537578,-0.009003652,0.33277776,0.580489548,-0.280370907,-0.568463571,0.333123356,0.997418799,0.153006547,-0.078358474,0.7872605,0.532434175,0.317727819,0.557203711,0.397161057,0.137846151,0.632130903,0.354033871,0.37620638,788.9377289,801.8315018,801.4285714,805.4578755,748.6446886,-0.377502,0.1203,0.925537,3.962708,-7.529144,-1.921539,1,1,1,1,1,75,
49:28.8,,,,,,,,,,,,,,,,,,,,,,,,,,,,,,,,,,,,,,/muse/elements/blink
49:28.9,0.720721471,0.317054568,0.469749731,0.713828465,0.696141627,0.035283804,0.037246828,0.169972268,0.75339753,0.31939895,0.362866505,0.716016631,0.403703777,0.491259357,0.516223087,0.468037053,0.306569054,0.568096515,0.312347372,0.481727336,839.3040293,818.3516484,795.7875458,827.2161172,705.1282051,-0.379089,0.122253,0.930054,4.530945,-5.458069,-0.807495,1,1,1,1,1,75,
49:29.9,1.467466527,1.069943643,1.2794448,1.032522977,1.189252321,0.406934379,0.699483147,1.169748446,1.091370859,0.472334418,0.582485887,0.866967125,0.730784315,0.574983192,0.613253068,0.629918861,0.458308696,0.626741295,0.29730806,0.475947753,800.6227106,808.2783883,800.2197802,824.7985348,1048.827839,-0.381836,0.117065,0.928345,4.523468,-6.983337,-1.271057,1,1,1,1,1,75,
49:30.8,,,,,,,,,,,,,,,,,,,,,,,,,,,,,,,,,,,,,,/muse/elements/blink
49:30.9,1.553576933,0.671921611,1.01053868,0.848515491,1.044655752,0.419942934,0.59891735,1.070602775,1.216830029,0.42792236,0.509028028,0.897019181,0.703548375,0.210559681,0.557845194,0.547009826,0.364195179,0.588590358,0.276295546,0.373968525,836.4835165,798.6080586,791.3553114,820.3663004,905.7875458,-0.380554,0.114136,0.925537,3.768311,-7.648773,-0.874786,1,1,1,1,1,75,
49:31.9,1.270020974,0.743328624,1.242895279,0.624103462,0.737036504,0.293204541,0.722355356,0.423473041,1.102759479,0.283858404,0.463880755,0.443846091,0.74794327,0.303599512,0.617928498,0.64796237,0.238367925,0.544391825,0.266772166,0.405332786,828.021978,827.6190476,807.4725275,788.9377289,654.3589744,-0.370667,0.117004,0.931519,4.089813,-7.327271,-1.951447,1,1,1,1,1,75,
49:32.9,0.545370744,0.052688782,0.853752031,0.565542051,0.442147292,0.010705397,0.421766775,0.385522397,0.377309145,0.246089901,0.323911505,0.483745141,0.539535833,0.125638151,0.681578892,0.627992446,0.105980792,0.565333592,0.401844276,0.588988742,810.6959707,799.4139194,788.5347985,831.6483516,884.029304,-0.375244,0.115295,0.931763,3.985138,-7.222595,-1.457977,1,1,1,1,1,75,
49:33.9,0.316189329,-0.217818013,-0.41250908,0.212771104,0.322369823,-0.188846546,-0.22700733,0.133753439,0.766843484,0.138342901,0.20376684,0.529420871,0.565226254,0.392537632,0.58316794,0.555751047,0.230899623,0.616629135,0.417214499,0.385521223,801.025641,794.1758242,792.1611722,811.5018315,749.4505495,-0.367981,0.117065,0.927551,4.029999,-6.631927,-1.839294,1,1,1,1,1,75,
49:34.9,0.475300776,-0.309076782,-0.18761314,0.299731054,0.26926679,-0.439491051,-0.561932623,-0.062125297,0.830625375,0.151642439,-0.034290517,0.416103555,0.427357195,0.406020239,0.533970891,0.445722089,0.358337889,0.709690719,0.270130596,0.124478585,803.040293,804.2490842,793.7728938,797.3992674,1144.725275,-0.372437,0.116516,0.933228,4.336548,-7.446899,-0.964508,1,1,1,1,1,75,
49:35.9,0.724267062,0.042525495,-0.465964206,0.534116044,0.291467539,-0.536353523,-0.334692329,0.102289301,0.926899569,0.307440646,0.25265102,0.604255526,0.540340611,0.386207056,0.45468986,0.615174944,0.184991473,0.636871874,0.366101113,0.40238296,812.7106227,793.3699634,783.6996337,827.2161172,996.4468864,-0.366211,0.111938,0.932617,3.865509,-7.850647,-1.973877,1,1,1,1,1,75,
49:36.9,0.539056626,-0.004906317,-0.121948622,0.654595284,0.320225258,-0.153780777,-0.269236966,0.25557284,0.831935006,0.241840013,0.237304957,0.691846675,0.501241836,0.482996183,0.441426825,0.788460803,0.125129996,0.612781082,0.466418727,0.586494375,797.3992674,799.4139194,801.025641,816.7399267,865.0915751,-0.370239,0.118469,0.931458,4.172058,-7.200165,-0.665436,1,1,1,1,1,75,
49:37.5,,,,,,,,,,,,,,,,,,,,,,,,,,,,,,,,,,,,,,/muse/elements/blink
49:37.9,0.593889973,0.604995669,0.924587023,0.633551449,0.587764268,0.130890619,0.209380846,0.401935681,0.532948989,0.186413325,0.135748215,0.633805016,0.476008608,0.481937821,0.323439276,0.63757229,0.09668951,0.58135475,0.319396036,0.38004543,816.7399267,808.6813187,790.5494505,813.5164835,780.8791209,-0.355591,0.114746,0.933594,3.902893,-7.63382,-1.712189,1,1,1,1,1,75,
49:38.9,0.900548378,0.880952306,1.261643419,0.679338238,0.778516523,0.256383976,0.465599399,0.546845329,0.657960706,0.232393425,0.278194314,0.431344935,0.521349247,0.397220987,0.469765153,0.531956736,0.115727401,0.501397083,0.129451411,0.341810197,815.5311355,815.9340659,799.8168498,805.8608059,839.7069597,-0.35968,0.116516,0.936401,4.560852,-6.512299,-1.383209,1,1,1,1,1,75,
49:39.9,0.752781486,0.422170044,0.646296915,0.596846159,0.594393117,0.108864318,0.136988329,0.440569343,0.793416392,0.053641814,0.16611137,0.530512054,0.40030508,0.512378402,0.51060818,0.81860437,0.037599618,0.524361023,0.169141538,0.566829436,821.1721612,818.7545788,791.7582418,811.5018315,726.0805861,-0.359802,0.107971,0.937744,3.768311,-6.751556,-2.534637,1,1,1,1,1,70,
49:40.9,0.397642208,-0.048433586,-0.227011047,0.165450095,0.268233588,0.000642273,-0.23623769,0.279108881,0.870692132,0.345891655,0.10325394,0.528844557,0.527772958,0.567411782,0.515416888,0.819623447,0.249796351,0.53917225,0.387633335,0.424512718,806.6666667,819.1575092,789.3406593,809.0842491,658.7912088,-0.36322,0.112244,0.932922,4.306641,-7.230072,-0.672913,1,1,1,1,1,70,
49:41.9,0.578956458,0.101309626,-0.139365312,0.211944442,0.194220105,0.046830278,-0.270530533,0.393593014,0.701600772,0.38743556,0.071615189,0.506539759,0.566510811,0.441948519,0.6604752,0.557854706,0.152086227,0.672549184,0.425060956,0.371815881,827.2161172,827.2161172,806.2637363,821.5750916,857.032967,-0.354431,0.110596,0.935669,4.029999,-7.850647,-1.719666,1,1,1,1,1,70,
49:42.9,0.490097312,0.034234461,-0.082575222,-0.140374267,0.171323629,-0.436612259,-0.177374723,0.183865569,0.376253733,0.182712122,0.006358084,0.594043056,0.553314445,0.4026178,0.581532828,0.579207792,0.084521505,0.667870062,0.412796927,0.384453693,821.978022,816.7399267,794.1758242,807.4725275,617.6923077,-0.356995,0.118225,0.940857,4.09729,-6.938477,-1.383209,1,1,1,1,1,70,
49:43.9,0.080968993,-0.058200852,-0.0717457,-0.033526852,0.20385797,-0.374874351,-0.366427728,-0.011599566,0.379268237,0.21807391,-0.126710595,0.564719916,0.667284457,0.525762916,0.421006765,0.791223044,0.106828967,0.572866589,0.700563264,0.627815007,810.2930403,810.6959707,802.2344322,822.7838828,569.7435897,-0.355774,0.108032,0.935303,3.843079,-7.200165,-2.086029,1,1,1,1,1,70,
49:44.9,0.565851528,0.050651089,-0.174432598,0.336960173,0.349407331,-0.393674068,-0.263432682,0.2965312,0.503191813,0.226175296,0.130274389,0.736757409,0.608971289,0.516965119,0.458208531,0.576334417,0.259280923,0.580425813,0.682978928,0.43021947,821.5750916,817.1428571,803.040293,816.7399267,538.7179487,-0.355591,0.110474,0.936035,4.067383,-6.878662,-0.530853,1,1,1,1,1,70,
49:45.9,0.498422726,-0.265629349,-0.333324005,0.230448595,0.489332386,-0.234063677,-0.284737809,0.357295788,0.601949896,0.116722319,0.102810568,0.766450933,0.552343077,0.462366072,0.657588048,0.559766497,0.328089771,0.685437641,0.471393903,0.360348742,819.5604396,816.3369963,790.1465201,816.3369963,751.8681319,-0.348206,0.113159,0.939392,4.201965,-7.349701,-1.682281,1,1,1,1,1,70,
49:46.9,0.209917283,-0.339795614,-0.164038342,0.200275449,0.362227194,-0.279706749,-0.400103152,0.309815935,0.446350287,0.095234971,0.068493162,0.682707321,0.549945819,0.337292752,0.647593427,0.650042869,0.235945179,0.617502918,0.391488934,0.480461094,809.4871795,815.9340659,801.4285714,813.5164835,695.4578755,-0.354065,0.110046,0.939331,3.925323,-7.259979,-1.59256,1,1,1,1,1,70,
49:47.9,0.223751383,0.08414085,0.269834238,0.305778739,0.250405968,-0.106837608,-0.154710963,0.348497441,0.5979005,0.024277594,0.325958054,0.712441937,0.495293564,0.54627647,0.624294671,0.544133695,0.228825939,0.578042079,0.329492778,0.39946332,816.3369963,818.3516484,808.2783883,825.2014652,892.8937729,-0.356323,0.111023,0.937195,3.992615,-6.235657,-0.471039,1,1,1,1,1,70,
49:48.9,0.667568908,-0.008882051,0.048939484,0.125912207,0.298332875,-0.164554862,-0.368436713,0.261803355,0.645001987,0.044122734,0.313136958,0.593116977,0.502476341,0.554368187,0.468054138,0.361162205,0.299278303,0.617626891,0.235764916,0.356195933,805.0549451,812.3076923,798.6080586,814.7252747,682.5641026,-0.355408,0.107788,0.937744,3.753357,-7.880554,-1.869202,1,1,1,1,1,70,
49:49.9,0.630508568,0.109246939,-0.023269036,0.309570786,0.337640965,-0.118770417,-0.501082041,0.287046977,0.783950121,0.000783186,-0.147296321,0.591380373,0.465618815,0.446934433,0.536320925,0.417476345,0.314992066,0.58400467,0.340597777,0.248635626,813.5164835,813.9194139,799.8168498,798.6080586,668.4615385,-0.35498,0.105896,0.938354,4.545898,-6.549683,-1.831818,1,1,1,1,1,75,
49:50.9,0.345126796,-0.095515046,0.038416018,0.140377408,0.404491814,-0.307751072,-0.576963066,0.245222905,0.622653159,0.061008899,-0.114483897,0.668364651,0.373428427,0.377889615,0.450229197,0.706586478,0.350854051,0.68038967,0.302080145,0.552298805,819.96337,818.7545788,788.9377289,807.0695971,771.6117216,-0.36084,0.107239,0.937378,3.573914,-7.603912,-1.719666,1,1,1,1,1,75,
49:51.6,,,,,,,,,,,,,,,,,,,,,,,,,,,,,,,,,,,,,,/muse/elements/blink
49:51.9,0.438756328,-0.254939451,0.015192523,0.377256953,0.540240208,-0.053688557,0.086993897,0.352306134,0.50191667,0.163151047,0.303524751,0.685669875,0.408444526,0.389759246,0.493919048,0.600613846,0.253318641,0.572683673,0.275630818,0.419923643,810.6959707,813.9194139,800.2197802,830.4395604,882.8205128,-0.357605,0.104614,0.933838,4.276733,-6.377716,-1.77948,1,1,1,1,1,75,
49:52.9,1.102349876,0.457881035,0.514548508,0.476739623,0.399494572,0.054413089,0.492217973,0.577889803,0.545703628,0.434433567,0.420594232,0.479128361,0.389329303,0.428362095,0.543035801,0.491413671,0.396012304,0.568819221,0.219849395,0.138330328,765.1648352,809.0842491,763.956044,810.2930403,830.03663,-0.354614,0.105591,0.937439,4.104767,-8.501129,-1.831818,1,1,1,1,1,75,
49:53.9,1.596391102,0.538706654,0.681445611,0.576692862,0.873542984,0.253979019,0.642942838,0.759819522,0.868185469,0.513371633,0.514926324,0.464695472,0.507306344,0.343877619,0.598060021,0.586930655,0.403382035,0.532158316,0.279966333,0.531922415,778.8644689,805.8608059,800.6227106,805.4578755,637.4358974,-0.354431,0.106995,0.934021,3.805695,-6.445007,-1.375732,1,1,1,1,1,75,
49:54.9,1.358218775,0.248292455,0.58550429,0.544079877,0.709671271,-0.082735561,0.353668183,0.477913997,0.80452396,0.317952899,0.470401744,0.716895088,0.584179891,0.38576296,0.562894308,0.712907037,0.2580566,0.548376797,0.253879973,0.598503997,790.5494505,800.6227106,802.6373626,818.7545788,888.0586081,-0.354309,0.106201,0.940674,4.590759,-7.648773,-1.248627,1,1,1,1,1,75,
49:55.9,0.924029595,-0.187844671,-0.539496242,-0.066609537,0.416221153,-0.152917722,-0.384406463,0.261187697,0.695431369,0.300418303,0.23416328,0.842260643,0.597332562,0.405998572,0.601128536,0.660492224,0.267311066,0.612218801,0.216347134,0.272040433,797.8021978,817.1428571,790.5494505,799.4139194,746.2271062,-0.35675,0.101196,0.934631,4.515991,-6.138458,-1.338348,1,1,1,1,1,75,
49:56.9,0.186595473,-0.531260897,-0.556179093,-0.021038353,0.257515518,-0.164480191,-0.49968941,-0.013232058,0.563172479,0.220660063,0.009557244,0.64364466,0.499712747,0.425130537,0.623114553,0.432540197,0.319333022,0.588149105,0.305536958,0.268665266,797.3992674,820.7692308,807.4725275,819.96337,701.0989011,-0.356079,0.10498,0.939697,4.239349,-7.888031,-1.622467,1,1,1,1,1,75,
49:57.9,0.074502779,-0.107707273,-0.603614447,0.151397981,0.045314411,-0.423476213,-0.309936012,0.175865833,0.531327982,0.052888287,-0.292297411,0.703060366,0.549212487,0.275512147,0.536007295,0.697041344,0.34097746,0.610274067,0.377146761,0.368153619,806.6666667,802.6373626,797.8021978,809.0842491,919.4871795,-0.356934,0.102173,0.937073,3.783264,-7.574005,-2.160797,1,1,1,1,1,75,
49:58.9,0.015895538,0.253866524,-0.447909774,0.268673461,0.158320844,-0.145977555,-0.311366433,0.239682893,0.728909462,-0.049272785,-0.088642095,0.717542602,0.59585701,0.432297178,0.490948416,0.775369947,0.257502608,0.543524074,0.481173066,0.441358055,803.8461538,812.7106227,813.1135531,808.2783883,768.3882784,-0.35675,0.100952,0.934692,3.738403,-7.102966,-1.188812,1,1,1,1,1,75,
49:59.9,0.299724759,0.123179008,-0.483712017,0.174683191,0.067612484,-0.240564501,-0.245156366,0.21477949,0.73753323,-0.035428801,-0.018417238,0.471430957,0.534920825,0.531154825,0.703332822,0.577877156,0.208001969,0.546000336,0.499984291,0.122990721,789.7435897,811.0989011,774.4322344,810.6959707,734.9450549,-0.358093,0.098206,0.936829,3.805695,-7.125397,-1.398163,1,1,1,1,1,75,
50:00.9,0.457312961,0.18629882,-0.031325267,0.033162326,0.195469775,-0.058105514,-0.29030435,0.26358537,0.701464195,0.007229164,-0.048505513,0.447645791,0.555546745,0.301154083,0.698763523,0.592988244,0.185736186,0.52490281,0.530588806,0.144450653,800.2197802,803.040293,780.8791209,822.7838828,900.952381,-0.356506,0.109131,0.938782,4.239349,-6.519775,-0.747681,1,1,1,1,1,75,
50:01.9,0.295696954,0.330316728,-0.072647398,0.102407425,0.407630779,-0.316105623,-0.256201883,0.141254045,0.762404754,0.176256392,-0.017256346,0.464731979,0.572062908,0.343987731,0.488180298,0.794995756,0.292322637,0.526363349,0.334385067,0.520831603,786.5201465,816.3369963,799.8168498,796.5934066,570.952381,-0.361633,0.099304,0.932068,3.544006,-8.142242,-2.003784,1,1,1,1,1,75,
50:02.9,0.04315508,0.875278052,-0.037094048,0.233345462,0.396230234,0.266769117,-0.173960299,-0.10922481,0.861453076,0.535134538,-0.124198199,0.534007795,0.502995324,0.462759248,0.586640514,0.636475128,0.318797633,0.553685484,0.247988085,0.461699308,796.996337,809.4871795,796.5934066,806.6666667,865.8974359,-0.354492,0.1026,0.934265,3.917847,-7.162781,-1.233673,1,1,1,1,1,75,
50:03.9,0.141221088,0.226529977,-0.100924374,0.068791674,0.352383062,-0.01894362,-0.322896096,0.383551195,0.709941224,0.312635912,0.033818986,0.676418507,0.422222334,0.492435652,0.55622138,0.395778748,0.239808118,0.579350013,0.167383289,0.34902394,806.2637363,816.7399267,803.4432234,807.0695971,865.4945055,-0.354675,0.10144,0.938232,3.850555,-7.147827,-2.385101,1,1,1,1,1,75,
50:04.9,0.149321672,-0.085324384,-0.19775356,0.149410746,0.499538203,-0.18906689,-0.509866944,0.367042516,0.889606076,0.409439515,0.139245931,0.689178725,0.492022156,0.492100101,0.615119656,0.35241447,0.152889891,0.55358476,0.438010769,0.105245012,796.5934066,821.5750916,799.010989,804.2490842,631.7948718,-0.356567,0.103577,0.935608,4.142151,-6.459961,-1.016846,1,1,1,1,1,75,
50:05.9,0.234213036,0.034490673,-0.221437074,0.24519417,0.580433611,-0.218720631,-0.43794314,0.410469084,0.768748025,0.073312606,-0.01192223,0.59115224,0.599369634,0.419770316,0.607392468,0.643269323,0.221998408,0.582001362,0.428291624,0.480101897,811.9047619,814.7252747,792.967033,815.9340659,722.0512821,-0.359558,0.103271,0.933716,3.805695,-7.357178,-1.988831,1,1,1,1,1,75,
50:06.9,0.342788514,-0.389506819,-0.179549213,0.347780479,0.619312339,-0.344078663,-0.265310492,0.527952265,0.90993531,-0.141088415,-0.024473429,0.580835498,0.559014072,0.545291722,0.541838936,0.603376246,0.305097613,0.603924472,0.393508826,0.475533457,792.967033,794.5787546,796.996337,824.7985348,1046.813187,-0.359436,0.103699,0.932007,3.858032,-7.431946,-1.704712,1,1,1,1,1,75,
50:07.6,,,,,,,,,,,,,,,,,,,,,,,,,,,,,,,,,,,,,,/muse/elements/blink
50:07.9,0.177992352,0.247810122,0.513792737,0.518657715,0.454793247,-0.151993741,0.195348074,0.424936465,0.639043962,0.09420755,0.019675896,0.360687202,0.580746509,0.484979463,0.496325492,0.456893467,0.223088311,0.596326204,0.437813473,0.360715241,815.5311355,821.1721612,796.996337,831.2454212,808.6813187,-0.360474,0.100403,0.934692,4.007568,-7.327271,-1.233673,1,1,1,1,1,75,
50:08.9,0.162809403,0.604610288,0.970835037,0.583072782,0.202064203,0.123417566,0.488432972,0.45878283,0.165375782,0.175371503,0.317736609,0.186163615,0.68199296,0.446066012,0.306325147,0.470943039,0.069668752,0.576117101,0.546074393,0.254885769,792.967033,812.7106227,809.8901099,793.7728938,607.6190476,-0.359802,0.099854,0.938171,3.947754,-7.416992,-2.145844,1,1,1,1,1,75,
50:09.9,0.413886381,0.003125778,0.63141589,0.522055914,0.610613648,0.104660794,0.217972797,0.503980248,0.926366619,0.255570993,0.32870011,0.802874957,0.670109617,0.370599504,0.460579402,0.661404994,0.266504812,0.669141467,0.64550239,0.515139812,794.5787546,786.5201465,796.1904762,802.2344322,1198.717949,-0.368408,0.106506,0.931763,4.687958,-6.631927,-0.598145,1,1,1,1,1,75,
50:10.9,0.386919864,-0.090724438,0.116773526,0.126300654,0.447171945,-0.078585914,-0.294800717,0.264085967,0.911320333,0.028181819,0.124810505,0.403218559,0.610089483,0.433754267,0.399844875,0.610251101,0.319944154,0.716238921,0.67102297,0.260153683,788.9377289,812.3076923,807.0695971,806.2637363,770.8058608,-0.365173,0.103943,0.932007,3.790741,-7.977753,-1.59256,1,1,1,1,1,65,
50:11.9,0.07173525,-0.317062942,-0.139825814,0.359079981,0.060233257,-0.36979447,-0.404251547,0.365700274,0.550009053,-0.0079483,0.006269281,0.701296888,0.655326708,0.526091803,0.353348491,0.543936288,0.164412716,0.596571138,0.635006724,0.074149941,798.2051282,797.8021978,796.1904762,803.8461538,987.5824176,-0.360962,0.10083,0.933044,4.104767,-6.564636,-1.487885,1,1,1,1,1,65,
50:12.9,0.372391621,-0.003500597,-0.332595653,0.542068209,-0.002146782,-0.172692792,-0.355506781,0.297318686,0.594941425,0.0245901,0.110287969,0.686567228,0.545180569,0.552739744,0.402346303,0.595297454,0.192457319,0.561750375,0.538083479,0.187537603,786.1172161,784.1025641,789.3406593,814.7252747,1135.054945,-0.36438,0.106995,0.933899,4.231873,-7.312317,-1.315918,1,1,1,1,1,65,
50:13.9,0.428792073,-0.183541348,-0.420617451,0.495816965,-0.045718019,-0.174418899,-0.605148893,0.074004344,0.739605179,0.116367303,-0.032352075,0.580307653,0.412892388,0.436725374,0.271095265,0.748136332,0.246668427,0.591249792,0.657432835,0.481561344,790.5494505,801.8315018,800.2197802,799.010989,720.4395604,-0.372314,0.108643,0.930786,4.067383,-6.721649,-1.353302,1,1,1,1,1,65,
50:14.9,0.545499868,-0.283552211,0.02966651,0.283709063,0.280481786,-0.144309535,-0.646805932,-0.02873084,0.656526862,0.157972908,-0.067829957,0.629400936,0.563658843,0.513550442,0.24152715,0.864338194,0.200613903,0.563188455,0.753792702,0.58194911,815.9340659,821.1721612,802.6373626,828.8278388,814.3223443,-0.364075,0.101501,0.934814,3.633728,-8.21701,-1.77948,1,1,1,1,1,65,
50:15.9,0.156259678,-0.123990986,-0.023694845,-0.153503425,0.206252775,-0.059241547,-0.375843439,0.35969286,0.491219595,0.191455007,0.073012012,0.682797582,0.573059428,0.467128013,0.280387575,0.598001611,0.1805597,0.499591062,0.560982682,0.299356303,797.3992674,792.967033,788.9377289,801.8315018,998.0586081,-0.368286,0.103882,0.931824,4.501038,-6.646881,-1.390686,1,1,1,1,1,65,
50:16.9,0.352388655,-0.114173198,0.24274722,-0.037738646,0.285342318,-0.235157029,-0.073635902,0.314189028,0.448941076,0.185684921,0.108874955,0.563430285,0.52641559,0.410061232,0.366247226,0.608312321,0.056131297,0.449086321,0.639682495,0.178066419,798.6080586,818.7545788,791.3553114,805.0549451,682.967033,-0.368286,0.106934,0.930969,4.344025,-7.63382,-1.360779,1,1,1,1,1,65,
50:17.9,0.507789807,-0.186739433,-0.092912928,-0.133168123,0.306411584,-0.176573866,-0.344904939,0.231694494,0.594189343,0.152683438,-0.08253785,0.544919936,0.573908805,0.508611999,0.415350686,0.690034038,0.149904275,0.465459277,0.705948357,0.475677129,797.8021978,814.3223443,801.4285714,815.1282051,664.029304,-0.376221,0.10791,0.929321,3.58139,-7.155304,-1.794434,1,1,1,1,1,65,
50:18.9,0.566380748,-0.029400846,-0.491815819,0.153391973,0.404620046,-0.327259913,-0.298187118,0.474033086,0.806014491,-0.084555287,-0.094844486,0.546520476,0.599234785,0.496865418,0.265945406,0.81648007,0.183910046,0.519669236,0.594446938,0.463391521,804.2490842,802.2344322,776.8498168,809.4871795,844.9450549,-0.370361,0.10675,0.929993,4.037476,-6.437531,-1.61499,1,1,1,1,1,65,
50:19.9,0.465641346,-0.018741239,-0.190798187,0.286192216,0.457395352,-0.382695916,-0.373675062,0.450882845,0.86810389,0.125572043,-0.129164873,0.589448657,0.531260592,0.470041611,0.370973577,0.531114158,0.145291348,0.569479615,0.47910398,0.364185078,809.0842491,810.2930403,803.8461538,810.2930403,682.967033,-0.376282,0.105591,0.933594,4.127197,-6.901093,-1.271057,1,1,1,1,1,65,
50:20.9,0.127967971,-0.219107464,-0.284601675,0.046019429,0.299952289,-0.545333697,-0.319793128,0.09974958,0.692180236,0.088944797,0.154435551,0.492510289,0.57978316,0.432969103,0.514969176,0.586705742,0.128581495,0.464751261,0.507478408,0.303390206,801.8315018,818.3516484,796.1904762,780.8791209,717.2161172,-0.372742,0.105469,0.934021,3.813171,-7.334747,-2.063599,1,1,1,1,1,75,
50:21.9,0.147767968,-0.242854378,-0.461808171,0.110187463,0.078339377,-0.300766908,-0.385877342,0.081019986,0.382054768,-0.110801557,0.090328812,0.604994894,0.554140196,0.391113109,0.360771983,0.799244166,0.192225185,0.510717807,0.408845601,0.600842096,796.1904762,805.4578755,790.1465201,805.4578755,878.7912088,-0.379028,0.106323,0.925659,4.381409,-6.213226,-1.226196,1,1,1,1,1,75,
50:22.9,0.10395317,-0.030429669,-0.249144725,0.126041911,0.221107669,-0.208442397,-0.307120037,0.272977087,0.529438455,0.153070331,0.116328166,0.695531466,0.51748952,0.51175996,0.278460539,0.782570333,0.112458914,0.545254339,0.677708591,0.580648339,802.2344322,806.6666667,792.5641026,812.3076923,679.3406593,-0.383728,0.107849,0.929688,3.768311,-7.454376,-1.59256,1,1,1,1,1,75,
50:23.9,0.298427431,0.040902289,-0.342112163,0.129994427,0.338022308,-0.092521442,-0.267972294,0.206962989,0.678280854,0.274054315,-0.121512455,0.681264302,0.638099536,0.504752798,0.261645071,0.485426318,0.14310817,0.461827363,0.6976043,0.286524912,796.1904762,809.0842491,794.5787546,804.6520147,913.4432234,-0.382874,0.105896,0.928894,3.955231,-7.267456,-1.525269,1,1,1,1,1,75,
50:24.9,0.111093995,-0.224208289,-0.184654532,0.318787363,0.289221614,-0.142757173,-0.181877523,0.316090722,0.724007466,0.122018412,-0.031083739,0.804947189,0.575603358,0.459971421,0.318464174,0.514657687,0.118178065,0.541447618,0.76804639,0.234138233,813.5164835,810.2930403,804.2490842,840.1098901,859.8534799,-0.384277,0.104675,0.925049,4.463654,-7.207642,-1.674805,1,1,1,1,1,75,
50:25.9,0.277985582,-0.189985917,-0.068488265,0.482834762,0.303340931,-0.34645921,-0.071483941,0.406760694,0.501916684,-0.015123421,0.308675782,0.989097182,0.566941554,0.570389633,0.303489317,0.717666341,0.142235495,0.592470908,0.612540487,0.397660897,804.6520147,817.9487179,799.8168498,816.3369963,645.8974359,-0.379028,0.107971,0.922058,3.962708,-6.871185,-1.211243,1,1,1,1,1,75,
50:26.9,0.461270529,0.103484009,-0.225152468,0.402165915,0.290111412,-0.171726574,-0.269748866,0.101965751,0.499899012,0.048614583,0.303723545,0.929860561,0.730273863,0.532962217,0.204468374,0.789432951,0.087948272,0.570710582,0.568503922,0.440919844,802.2344322,811.9047619,788.9377289,806.6666667,584.2490842,-0.377136,0.107178,0.929504,4.07486,-6.557159,-2.018738,1,1,1,1,1,75,
50:27.9,0.332103429,-0.433038871,-0.536395525,0.213989444,0.325820677,-0.255061496,-0.379484258,0.197724011,0.489579822,0.176418247,-0.100493712,0.505687513,0.679212039,0.446402273,0.207941931,0.399002246,0.009186835,0.532146878,0.540813396,0.315695654,796.1904762,809.8901099,790.5494505,816.7399267,966.2271062,-0.38916,0.104004,0.924011,4.015045,-7.536621,-0.740204,1,1,1,1,1,75,
50:28.2,,,,,,,,,,,,,,,,,,,,,,,,,,,,,,,,,,,,,,/muse/elements/blink
50:28.9,0.418366418,0.949271713,1.092956659,0.204814033,0.495797688,0.316479678,0.642480017,0.45635672,0.512540534,0.325077571,0.510239541,0.537772725,0.582879244,0.487515746,0.357697089,0.422296694,0.027024114,0.557176459,0.607409977,0.183539694,794.1758242,806.6666667,792.967033,805.0549451,953.3333333,-0.379211,0.108765,0.928894,3.955231,-7.745972,-1.457977,1,1,1,1,1,75,
50:29.9,0.462984663,0.898785545,1.055849898,0.156899383,0.414378794,0.327574794,0.568238394,0.548210185,0.395882558,0.293836988,0.505558024,0.363332734,0.570426961,0.32869128,0.416298277,0.870472714,-0.083231251,0.516526979,0.250766878,0.67000644,796.1904762,799.4139194,810.2930403,811.5018315,349.3406593,-0.387512,0.10675,0.924744,4.09729,-6.504822,-1.734619,1,1,1,1,1,75,
50:30.9,0.341286175,-0.361923994,-0.328529105,0.29920249,0.206656055,-0.369360452,-0.314354219,0.3520556,0.358202697,-0.099956679,0.127160143,0.42513543,0.55388412,0.484546894,0.424784946,0.767994604,0.019899987,0.457249077,0.517516034,0.632547096,793.3699634,802.2344322,795.7875458,811.5018315,772.4175824,-0.382629,0.107971,0.92688,4.508514,-7.319794,-1.383209,1,1,1,1,1,75,
50:31.9,0.294545052,-0.015478606,-0.591025048,0.238254832,0.311411246,-0.18299494,-0.638311464,0.212904474,0.325535682,-0.074700029,-0.075860023,0.353904134,0.599066977,0.384307373,0.351594519,0.500688368,0.137998782,0.422290348,0.475682849,0.339174896,796.1904762,811.0989011,809.8901099,813.1135531,635.018315,-0.385681,0.102356,0.921875,4.314117,-6.945953,-1.398163,1,1,1,1,1,75,
50:32.9,0.721098806,0.078180726,-0.234756168,0.596706755,0.563538582,-0.102346079,-0.418286729,0.504165904,0.87671634,0.039834232,0.342126361,1.16805225,0.520919246,0.432314138,0.255561917,0.540944809,0.125406214,0.473365771,0.445995143,0.216643609,776.4468864,806.6666667,782.0879121,795.3846154,796.996337,-0.383911,0.107605,0.926636,4.42627,-7.514191,-1.75705,1,1,1,1,1,75,
50:33.9,0.680934222,0.082743218,0.10483559,0.626210662,0.53361024,-0.229389697,-0.075579169,0.619255743,1.007681988,0.271050959,0.402830294,1.170944288,0.423309814,0.483547066,0.598818917,0.762388546,0.203373931,0.508145221,0.578749598,0.561696398,792.1611722,794.5787546,797.3992674,809.0842491,903.7728938,-0.382568,0.111511,0.926941,3.858032,-7.910461,-1.899109,1,1,1,1,1,75,
50:34.9,0.419174282,0.074544986,-0.041567961,0.441635922,0.48460416,-0.058334331,-0.190695575,0.373109879,0.825598813,0.079543564,-0.00213108,0.53518211,0.589059141,0.5187484,0.648894602,0.790574716,0.18436503,0.375703977,0.493360187,0.595779762,797.3992674,823.1868132,797.3992674,801.4285714,848.5714286,-0.384827,0.104309,0.928162,4.134674,-6.280518,-1.786957,1,1,1,1,1,75,
50:35.9,0.671552128,0.119553932,-0.100012586,0.475813151,0.472220424,0.035732338,-0.157097771,0.123728588,0.491259839,0.116602231,0.183880798,0.534501038,0.613595471,0.363293064,0.625029976,0.448455258,0.183679043,0.531557029,0.406263336,0.121570956,792.1611722,799.8168498,793.7728938,806.2637363,984.3589744,-0.382629,0.104736,0.926758,4.530945,-7.745972,-1.390686,1,1,1,1,1,75,
50:36.9,0.255224703,-0.181451857,-0.024292139,0.368530196,0.30827968,-0.287134973,-0.219816298,0.161400923,0.674725042,0.031053968,0.216668634,0.629574669,0.550027207,0.458429633,0.670190843,0.463165891,0.165557282,0.62709755,0.652724921,-0.012752619,799.010989,805.4578755,798.6080586,829.6336996,942.0512821,-0.38678,0.103577,0.932068,4.433746,-6.975861,-1.891632,1,1,1,1,1,75,
50:37.5,,,,,,,,,,,,,,,,,,,,,,,,,,,,,,,,,,,,,,/muse/elements/blink
50:37.9,0.490676476,0.575916657,0.702082091,0.26498622,0.50026552,0.367093613,0.240923282,0.452637744,0.742634033,0.149793144,-0.01453415,0.813319812,0.643621347,0.357457309,0.777452352,0.483064204,0.204221658,0.538387238,0.580615515,0.461224683,796.996337,828.021978,791.7582418,796.1904762,585.0549451,-0.383972,0.104187,0.928528,3.955231,-6.459961,-1.300964,1,1,1,1,1,75,
50:38.9,0.729894098,1.062735677,0.869097382,0.039090333,0.745130394,0.6928508,0.48200923,-0.046956258,0.725333022,0.170107222,0.238563764,0.148840247,0.733383039,0.248237938,0.708275286,0.416335154,0.183701084,0.480209369,0.305515424,0.444375897,791.7582418,811.5018315,796.996337,803.4432234,768.3882784,-0.38562,0.106934,0.928711,3.970184,-8.3815,-1.704712,1,1,1,1,1,75,
50:39.9,0.072617599,0.458531684,-0.796432239,0.18675507,-0.065241458,0.065664848,-0.47422626,0.087661228,0.404787197,0.011801241,0.214177752,0.552477003,0.508471154,0.298603049,0.602608649,0.466518421,0.18071054,0.523424146,0.45859026,0.302169835,792.967033,813.1135531,793.3699634,798.6080586,653.1501832,-0.380371,0.103821,0.925232,4.067383,-7.267456,-1.75705,1,1,1,1,1,75,
50:40.9,0.116824859,-0.163263099,-0.078126232,0.081492623,0.099109722,-0.199721478,-0.454885983,0.217970755,0.572467119,-0.053523808,0.095079498,0.806608267,0.596624724,0.440357702,0.47128648,0.560871773,0.149245047,0.558109898,0.530382003,0.339192901,799.4139194,821.1721612,805.8608059,810.6959707,748.2417582,-0.385254,0.104065,0.925598,4.373932,-7.237549,-1.525269,1,1,1,1,1,70,
50:41.9,0.704491771,0.104032314,0.319497129,0.7551639,0.424928966,-0.061596635,-0.089508046,0.489862027,0.571077669,0.104444226,0.093131012,0.810056654,0.615037417,0.407275284,0.393369379,0.542630963,0.242664033,0.579051414,0.495605452,0.42431742,796.5934066,801.8315018,803.4432234,811.9047619,722.4542125,-0.387024,0.107422,0.926453,4.104767,-6.534729,-1.390686,1,1,1,1,1,70,
50:42.8,,,,,,,,,,,,,,,,,,,,,,,,,,,,,,,,,,,,,,/muse/elements/blink
50:42.9,0.900030151,0.733776674,0.91267696,1.024443778,0.965957356,0.307312731,0.578507072,0.890753914,1.061543625,0.325696695,0.564936836,0.977771369,0.682210119,0.437688475,0.565792422,0.722599928,0.383689854,0.510714744,0.422210622,0.577734454,838.9010989,830.4395604,821.978022,849.7802198,827.2161172,-0.833679,0.125916,0.614624,13.106842,63.014526,-14.138641,1,1,1,1,1,70,
50:43.9,0.518505353,1.191580951,1.021632999,0.776252884,0.855278448,0.532202377,0.633680951,0.795659755,0.965604974,0.550243696,0.573826494,0.898094594,0.686069003,0.563232201,0.900800013,0.761496544,0.375096079,0.539462239,0.588506823,0.609665024,825.6043956,812.7106227,809.0842491,848.1684982,984.3589744,-1.018494,0.089478,0.170837,4.015045,-25.234222,1.383209,1,1,1,1,1,70,
50:44.2,,,,,,,,,,,,,,,,,,,,,,,,,,,,,,,,,,,,,,/muse/elements/blink
50:44.5,,,,,,,,,,,,,,,,,,,,,,,,,,,,,,,,,,,,,,/muse/elements/blink
50:44.9,0.518505353,1.198874674,0.884070414,0.776252884,0.855278448,0.391517554,0.437067491,0.795659755,0.965604974,0.466631257,0.419157859,0.898094594,0.686069003,0.648575292,0.650012276,0.761496544,0.375096079,0.632355585,0.364249086,0.609665024,803.8461538,1445.714286,789.3406593,800.6227106,644.6886447,0.672485,0.016418,0.736389,1.211243,-65.990295,7.409515,1,1,1,1,1,70,
50:45.9,0.518505353,1.317019779,1.162814544,0.776252884,0.855278448,-0.243351679,0.621707078,0.795659755,0.965604974,-0.050750824,0.516106347,0.898094594,0.686069003,0.455786672,0.127960618,0.761496544,0.375096079,0.588280586,-0.069296896,0.609665024,840.1098901,442.8205128,971.0622711,797.8021978,783.6996337,0.861938,0.15509,0.50354,5.794525,-25.533295,-49.294586,1,2,4,1,2,70,
50:46.2,,,,,,,,,,,,,,,,,,,,,,,,,,,,,,,,,,,,,,/muse/elements/jaw_clench
50:46.9,,,,,,,,,,,,,,,,,,,,,,,,,,,,,,,,,,,,,,/muse/elements/blink
50:46.9,0.518505353,1.317019779,1.268130726,0.776252884,0.855278448,-0.243351679,0.559787755,0.795659755,0.965604974,-0.050750824,0.516106347,0.898094594,0.686069003,0.455786672,0.074347927,0.761496544,0.375096079,0.588280586,-0.291165614,0.609665024,773.2234432,1343.772894,1626.630037,784.9084249,794.1758242,0.26947,0.089783,0.92865,17.25647,79.373779,-0.321503,1,2,4,4,2,70,
50:47.9,0.518505353,1.317019779,1.268130726,0.776252884,0.855278448,-0.243351679,0.559787755,0.795659755,0.965604974,-0.050750824,0.516106347,0.898094594,0.686069003,0.455786672,0.074347927,0.761496544,0.375096079,0.588280586,-0.291165614,0.609665024,830.4395604,1060.10989,1021.428571,802.2344322,679.3406593,-0.225342,0.129395,0.968872,7.252502,-5.00946,-1.4505,1,2,4,1,2,70,
50:48.9,1.336682218,1.317019779,2.25136008,0.982444715,0.668599859,-0.243351679,0.689440797,0.713724989,0.854722116,-0.050750824,0.586171375,0.799282092,0.538197626,0.455786672,0.76211818,0.671999593,0.203852441,0.588280586,0.514375441,0.351528898,840.5128205,962.1978022,888.0586081,794.1758242,724.8717949,-0.278259,0.111938,0.957397,4.381409,-5.398254,-6.317902,1,1,1,1,1,70,
50:49.9,1.114218322,1.621472646,1.792992664,0.816185506,0.753647398,0.583220003,0.581489481,0.538813164,0.980486895,0.723250963,0.583755002,0.851617201,0.571454733,0.752001477,0.6331361,0.827779215,0.404737154,1.401020696,0.452341371,0.496229003,806.2637363,886.4468864,839.3040293,779.2673993,607.2161172,-0.284058,0.118225,0.961792,3.155212,-8.187103,-2.736511,1,1,1,1,1,70,
50:50.9,1.393985393,1.317318227,1.09949583,0.757447499,1.167326966,0.519930209,0.313028573,0.586669998,1.411289185,0.81466242,0.452670994,0.714334114,0.917044328,0.689582194,0.510909032,0.708127634,0.567838355,1.318853738,0.240534604,0.357251724,793.7728938,806.6666667,815.5311355,782.0879121,969.047619,-0.280518,0.10968,0.961182,3.37204,-6.056213,-3.252411,1,1,1,1,1,70,
50:51.9,1.139670005,1.06863287,0.764757879,0.336894702,1.259356731,-0.19903761,0.091160905,0.482175588,1.411289185,0.667417229,0.650237826,0.838339888,0.958262335,0.719768693,0.61370631,0.415553353,0.549042335,1.29116829,0.170975495,0.19632433,816.3369963,841.7216117,785.7142857,784.1025641,684.1758242,-0.290955,0.112183,0.95929,4.276733,-7.775879,-1.487885,1,1,1,1,1,75,
50:52.9,1.078233507,1.06671803,0.683776084,0.745327885,0.694039088,0.221815169,0.145373895,0.638222325,0.66856084,0.824188963,0.56786846,0.729258298,0.564164838,0.631702352,0.536291297,0.574952432,0.287655345,1.299106947,0.295603657,0.475272672,788.9377289,739.3772894,748.6446886,788.9377289,738.974359,0.40448,0.083252,0.944397,0.844879,-33.817596,-2.631836,1,1,1,1,1,75,
50:53.9,1.11447722,1.824291347,1.385701615,0.765524714,1.324947676,0.579360305,0.195590387,0.9462159,1.368986738,0.840513887,0.266979773,0.881087175,0.761629007,0.635892879,0.379133726,0.803261856,0.315514472,1.222839828,0.205727617,0.728688463,801.4285714,651.1355311,676.5201465,813.5164835,825.6043956,0.357727,0.135132,0.927551,10.602112,0.089722,4.643097,1,1,1,1,1,75,
50:54.9,1.722147536,1.418085911,1.199717065,0.617997041,0.933993228,0.249797394,-0.059693915,0.102383452,1.314651865,0.806806851,0.148973295,0.651293256,0.894019241,0.60747741,0.078529387,0.49344443,0.295468428,1.225962591,-0.1676356,0.406781467,853.4065934,693.040293,700.6959707,805.8608059,583.4432234,0.326843,0.11554,0.942444,3.715973,-6.078644,-2.459869,1,1,1,1,1,75,
50:55.9,1.597372833,1.008015523,0.78599987,0.820788819,0.87696007,0.392042502,-0.063806708,0.253925791,0.667583693,0.517675407,0.195659267,0.731383401,0.729412176,0.684794816,0.368056438,0.674383879,0.292262891,1.25179808,-0.134146521,0.48575367,813.9194139,783.6996337,752.6739927,806.6666667,693.4432234,0.292969,0.110168,0.945618,4.022522,-1.547699,-0.964508,1,1,1,1,1,75,
50:56.2,,,,,,,,,,,,,,,,,,,,,,,,,,,,,,,,,,,,,,/muse/elements/blink
50:56.9,1.597372833,1.253540559,1.17147454,1.509928547,0.87696007,0.165412669,0.170903223,1.243654308,0.667583693,0.559616591,0.206849386,1.118309867,0.729412176,0.623004133,0.474644203,0.61814233,0.292262891,1.214098456,0.146764026,0.352678025,851.7948718,811.0989011,783.6996337,814.3223443,748.2417582,0.247925,0.110046,0.962646,3.319702,-6.931,-2.086029,1,1,1,1,1,75,
50:57.9,1.597372833,1.034354263,1.109731973,1.576958697,0.87696007,-0.032138711,0.154384224,1.205542164,0.667583693,0.58360151,0.348905599,1.202933557,0.729412176,0.585923502,0.403867649,0.488806237,0.292262891,1.125794627,0.09166708,0.085424896,857.032967,840.5128205,807.0695971,806.6666667,684.981685,-0.147461,0.124817,0.984009,1.413116,15.394745,-10.646973,1,1,1,1,1,75,
50:58.9,1.597372833,1.229976301,0.848281902,0.949793662,0.87696007,0.143274596,0.175757404,0.763338055,0.667583693,0.442239624,0.37499816,1.024197331,0.729412176,0.669837746,0.543942673,0.69352939,0.292262891,1.076520594,0.112494238,0.356956856,821.978022,898.1318681,846.1538462,823.1868132,588.2783883,-0.574402,0.118469,0.804749,6.826324,24.568787,-4.246826,1,1,1,1,1,75,
50:59.9,1.597372833,1.091183171,0.838326131,0.710295876,0.87696007,0.259497097,0.396302583,0.731981029,0.667583693,0.425520133,0.429933123,0.860431337,0.729412176,0.720145555,0.651695137,0.701082293,0.292262891,1.13514828,0.265234237,0.43808334,1196.703297,914.6520147,854.6153846,836.8864469,718.021978,-0.892761,0.128174,0.442383,3.215027,-4.059906,1.091614,1,1,1,1,1,75,
51:00.9,1.597372833,1.102193043,0.640047927,1.132587588,0.87696007,0.816138464,0.552883402,0.700960542,0.667583693,0.424585808,0.462755568,0.675935374,0.729412176,0.5440014,0.543016382,0.633556728,0.292262891,1.129088868,0.133736324,0.463074481,708.3516484,858.2417582,840.5128205,751.0622711,849.7802198,-0.41333,0.127991,0.895813,0.628052,-29.062347,-0.067291,1,1,1,1,1,75,
51:01.2,,,,,,,,,,,,,,,,,,,,,,,,,,,,,,,,,,,,,,/muse/elements/blink
51:01.9,1.597372833,2.137540898,0.842815488,1.394122347,0.87696007,0.581232493,0.051593062,1.30294747,0.667583693,0.440396629,0.311089017,1.355606361,0.729412176,0.720749776,0.472339489,0.700908665,0.292262891,1.161863556,0.058594366,0.355403734,767.5824176,707.5457875,788.5347985,784.5054945,787.7289377,0.298645,0.105835,0.956482,0.216827,-39.821472,2.093506,1,1,1,1,1,75,
51:02.9,1.597372833,1.926259593,1.083812104,1.188089617,0.87696007,0.554793778,-0.153600556,1.063432896,0.667583693,0.649645821,0.270979331,1.329909997,0.729412176,0.634708071,0.279953564,1.046391102,0.292262891,1.144823022,-0.0292953,0.766029474,779.2673993,671.2820513,757.5091575,802.6373626,1033.516484,0.352661,0.099121,0.946228,3.618774,8.882446,-1.345825,1,1,1,1,1,75,
51:03.9,0.791787815,1.768401237,0.95299608,0.982610172,0.68454049,0.326957028,-0.132604484,0.459888017,0.996746477,0.766622528,0.013188061,0.618863508,0.517098609,0.456352878,0.2058325,0.682944072,0.344125528,1.090297933,0.030926221,0.643907151,782.8937729,826.8131868,808.6813187,816.7399267,720.03663,-0.269897,0.100037,0.960083,4.149628,23.798676,-6.213226,1,1,1,1,1,75,
51:04.9,1.024547965,1.897063786,0.948271792,0.764314085,0.658953534,0.108262548,-0.46127092,0.276449808,0.9998674,0.630073235,0.121355561,0.687733603,0.63302844,0.524037273,0.418997868,0.615895106,0.214105969,1.027334254,0.078788417,0.303988339,809.4871795,921.0989011,835.6776557,811.5018315,695.0549451,-0.690979,0.087402,0.735107,6.160889,-4.299164,1.772003,1,1,1,1,1,75,
51:05.9,1.389370093,1.522812587,0.383553977,0.72928533,0.928195025,0.157892285,-0.237048114,0.195496921,0.984785091,0.351442789,0.119840075,0.864355989,0.85003936,0.481598974,0.486903415,0.598404042,0.430320913,1.007197313,0.404041381,0.4164746,800.2197802,897.3260073,824.3956044,788.1318681,604.7985348,-0.74292,0.118164,0.701904,2.661743,-11.05072,1.562653,1,1,1,1,1,75,
51:06.9,1.577544775,1.552741627,0.303190515,0.634012078,1.212602168,0.668283545,-0.252747528,0.240063688,0.886725874,0.875305066,0.154342216,0.655076682,0.900192126,0.413544191,0.486842205,0.673434818,0.618368722,0.971135092,0.409606706,0.595795444,802.6373626,827.6190476,811.0989011,815.5311355,649.1208791,-0.459351,0.08667,0.887939,1.40564,-27.402496,1.181335,1,1,1,1,1,75,
51:07.9,0.644229357,1.587575655,0.358054452,0.650912691,0.482418048,0.699259288,-0.294688188,0.313216856,0.406023416,0.87402305,-0.108563293,0.496411109,0.717333367,0.334707456,0.410731595,0.456467963,0.382013649,1.048857798,0.077405469,0.345487497,821.5750916,732.5274725,793.3699634,828.8278388,1195.091575,-0.040283,0.106873,0.990295,4.82254,-29.152069,0.620575,1,1,1,1,1,75,
51:08.9,0.440529681,1.425501919,0.544707046,0.163047865,0.320282685,0.076363453,-0.130089699,0.376749316,0.857042219,0.370048549,-0.122978561,0.399752594,0.531146618,0.471317864,0.308473805,0.315088009,0.319200421,1.108862093,-0.066416107,0.317551164,796.996337,701.9047619,767.1794872,781.2820513,815.9340659,0.226624,0.105347,0.970337,5.757141,0.919647,-1.562653,1,1,1,1,1,75,
51:09.9,0.771974867,1.384165491,0.576531943,0.456654026,0.553729845,0.198234832,-0.28976345,0.206227847,0.939925329,0.44201947,0.063366532,0.433174469,0.460391152,0.421024536,0.244943115,0.698794054,0.277898817,1.017283523,-0.154513221,0.524511406,809.8901099,824.3956044,808.6813187,821.1721612,653.1501832,-0.220581,0.097717,0.976501,2.85614,22.26593,-4.590759,1,1,1,1,1,75,
51:10.9,0.875169241,1.637652432,0.698956927,0.467897376,0.459361928,0.161421071,-0.107868783,0.446048404,0.694792868,0.408749002,-0.037189581,0.500653592,0.422067782,0.258220998,0.360080162,0.764697359,0.26371268,1.040483849,0.031928472,0.421472894,789.7435897,892.8937729,821.1721612,811.5018315,532.6739927,-0.696594,0.088074,0.726685,6.512299,15.020905,-8.56842,1,1,1,1,1,75,
51:11.9,0.895637493,1.227195978,0.307383569,0.369752035,0.76046363,-0.010589156,-0.010088465,0.290965324,1.237769589,0.409021205,0.073979043,0.696977736,1.025119884,0.336060624,0.434063069,0.642290864,0.767124175,1.045788731,0.290831902,0.224545433,857.032967,857.4358974,799.8168498,820.3663004,1183.406593,-0.86261,0.119202,0.503052,2.190704,-9.241333,-1.233673,1,1,1,1,1,75,
51:12.9,1.036928669,0.906566576,0.170062191,0.46173117,0.991613674,0.162743377,-0.162321572,0.367394162,1.16604648,0.551954753,0.23953504,0.742648709,1.094622751,0.405356725,0.570906099,0.779889251,1.009848382,0.970911173,0.367750314,0.543330435,760.7326007,838.4981685,813.9194139,803.040293,753.0769231,-0.595703,0.117249,0.797729,0.650482,-40.509338,0.388794,1,1,1,1,1,75,
51:13.9,1.189355744,1.493855847,0.607886989,0.728090705,1.24291709,0.381797989,0.119975352,0.664843924,1.018103841,0.617513727,0.193439157,0.721374234,0.830274406,0.275607354,0.409287235,0.564128325,0.33539595,0.925574946,0.062618868,0.425646672,801.8315018,739.3772894,788.1318681,798.2051282,767.5824176,-0.080811,0.121643,0.999695,13.71994,-28.524017,8.628235,1,1,1,1,1,75,
51:14.9,1.059549487,1.482298732,0.681771681,0.489392036,0.91112089,0.464473199,-0.182587989,0.471366703,0.723928501,0.442583503,0.220269094,0.692740857,0.73578418,0.351168616,0.141548899,0.415615119,0.385259135,0.939685137,-0.0851908,0.229150633,792.1611722,701.5018315,766.7765568,802.2344322,1060.10989,0.162231,0.137512,0.976868,4.673004,-3.491669,-2.071075,1,1,1,1,1,75,
51:15.9,0.654773984,1.301046741,0.445738617,0.476480711,0.426586276,0.258887093,-0.438290134,0.270481386,1.157026907,0.381133496,0.18354955,0.445623959,0.648530082,0.367109991,0.18910398,0.589790424,0.395780216,1.015631955,-0.082774718,0.400929683,788.9377289,833.2600733,802.2344322,808.6813187,629.3772894,-0.205994,0.130249,0.979919,2.654266,13.734894,-6.534729,1,1,1,1,1,75,
51:16.9,0.818690382,1.402400366,0.544215685,0.539659498,0.939455381,0.083922707,-0.418219197,0.258410174,1.451901542,0.40261998,-0.106115703,0.380829402,0.989566839,0.254020081,0.284778138,0.632701107,0.509369975,1.008021753,0.135707043,0.584659961,762.7472527,867.1062271,809.4871795,796.996337,582.6373626,-0.636169,0.108154,0.76355,8.740387,29.488525,-5.181427,1,1,1,1,1,75,
51:17.9,1.204517202,0.898539834,0.241847174,0.536335569,1.379847173,0.190114259,-0.188505884,0.445567177,1.433646943,0.650401365,-0.031226929,0.982814427,1.390638702,0.252836496,0.376096567,0.614465215,0.73182268,0.922210038,0.344841637,0.387715073,885.2380952,878.7912088,790.5494505,809.8901099,779.2673993,-0.892944,0.115601,0.433838,4.09729,-11.671295,-0.381317,1,1,1,1,1,75,
51:18.9,1.204517202,0.959522259,0.610731862,0.726617602,1.379847173,0.29449114,-0.035062001,0.686746669,1.433646943,0.641557579,0.240800066,1.077687011,1.390638702,0.311980333,0.443019901,0.540711674,0.73182268,0.888796598,0.418667013,0.500829674,716.007326,838.0952381,832.4542125,836.8864469,739.7802198,-0.538086,0.126831,0.853699,-1.046753,-48.576813,10.632019,1,1,1,1,1,75,
51:19.9,1.204517202,1.423336731,1.336119148,1.198090599,1.379847173,0.619882708,0.598158673,0.771884896,1.433646943,0.214042527,0.637421917,1.008243793,1.390638702,0.262485002,0.325160418,0.487657004,0.73182268,0.963062035,0.027525239,0.581183264,790.1465201,734.5421245,783.2967033,799.8168498,730.1098901,0.051636,0.121399,0.976501,4.837494,-35.245667,1.846771,1,1,1,1,1,75,
51:20.9,1.204517202,1.252479041,1.124278537,1.028990456,1.379847173,0.361336992,0.290472103,0.693860677,1.433646943,0.336011066,0.553141979,0.825655179,1.390638702,0.355459721,0.168329632,0.59134968,0.73182268,1.000370717,0.135366287,0.487575649,733.3333333,719.2307692,770,807.0695971,1068.571429,0.336487,0.10022,0.97583,2.811279,-8.725433,-3.304749,1,1,1,1,1,75,
51:21.9,1.649654382,1.282090173,0.482472941,0.534441086,0.94630895,0.401251103,-0.259193233,0.374149485,1.039026816,0.406328282,0.116848212,0.717747486,0.767145308,0.430044017,0.20031455,0.712192685,0.398578765,0.970719475,0.140218673,0.486344964,606.007326,817.9487179,801.025641,814.7252747,686.1904762,-0.190369,0.102173,0.979797,3.521576,21.56311,-6.78894,1,1,1,1,1,75,
51:22.9,1.649654382,1.512763817,0.708953272,0.570884647,0.94630895,0.30974187,-0.226345027,0.249773183,1.039026816,0.400008601,0.314273418,0.732732094,0.767145308,0.367211331,0.37781155,0.784753099,0.398578765,0.945203918,0.219140931,0.494059323,759.1208791,884.4322344,817.9487179,799.8168498,862.2710623,-0.75592,0.034851,0.684082,1.824341,15.671387,-8.837585,1,1,1,1,1,75,
51:23.9,1.649654382,1.227691475,0.409739678,0.586986688,0.94630895,0.195303763,-0.343216836,0.448014513,1.039026816,0.419037119,0.385489444,0.75510418,0.767145308,0.341454217,0.405020281,0.681955054,0.398578765,0.91209551,0.180824957,0.378637691,907.8021978,869.1208791,814.7252747,833.6630037,820.7692308,-0.856567,0.071838,0.528992,1.046753,-10.759125,-5.757141,1,1,1,1,1,75,
51:24.9,1.649654382,1.223514653,0.594700432,0.834149939,0.94630895,0.522186805,-0.143058712,0.580932308,1.039026816,0.36791332,0.352492195,0.775270577,0.767145308,0.315148896,0.455900366,0.701085551,0.398578765,0.889466088,0.125802892,0.573390797,707.1428571,832.8571429,816.3369963,818.7545788,651.1355311,-0.568787,0.086487,0.83606,5.757141,-28.082886,1.031799,1,1,1,1,1,75,
51:25.8,,,,,,,,,,,,,,,,,,,,,,,,,,,,,,,,,,,,,,/muse/elements/blink
51:25.9,1.649654382,1.325095317,0.512426796,0.914328474,0.94630895,0.441613203,-0.071584676,0.40992565,1.039026816,0.309166528,0.277185157,0.516259198,0.767145308,0.337730415,0.341919856,0.537124045,0.398578765,0.931113336,0.069206207,0.46936764,808.2783883,762.3443223,780.0732601,813.1135531,714.3956044,-0.132385,0.137573,0.984131,6.721649,-31.858673,6.519775,1,1,1,1,1,75,
51:26.9,1.649654382,1.136512783,0.565087394,0.649077329,0.94630895,-0.090621958,0.039101956,0.044206242,1.039026816,0.2806274,0.247324277,0.599674806,0.767145308,0.32038562,0.151636773,0.613441693,0.398578765,0.930134772,-0.101215978,0.280081451,815.1282051,752.2710623,778.0586081,787.3260073,801.4285714,0.114014,0.134155,0.980225,3.596344,5.547791,-4.104767,1,1,1,1,1,75,
51:27.9,1.649654382,1.07270031,0.699347225,0.864359811,0.94630895,0.368242581,0.107983895,0.331919432,1.039026816,0.772326142,0.408250065,0.86910508,0.767145308,0.376730186,0.165976784,0.722981429,0.398578765,0.939401933,-0.121745937,0.406501884,767.5824176,822.7838828,806.2637363,821.5750916,574.981685,-0.288757,0.137207,0.955872,1.629944,20.950012,-3.058014,1,1,1,1,1,75,
51:28.9,1.571395185,1.15257429,0.623745868,0.957474837,0.986783578,0.23712389,0.17027187,0.689339914,1.009691262,0.759114493,0.351852248,0.929731702,0.75581358,0.436856451,0.190130943,0.718923876,0.239869231,0.911423297,-0.044283261,0.483849075,788.1318681,839.3040293,803.8461538,802.6373626,1349.010989,-0.64209,0.104248,0.763794,6.317902,13.061981,-5.682373,1,1,1,1,1,75,
51:29.9,1.68206828,0.796031961,0.001450012,0.636098194,1.00882131,0.209501366,-0.205685081,0.614192266,0.970279421,0.891698613,0.027785061,0.866857162,0.773725184,0.671728993,0.387394226,0.716068808,0.205202877,0.868141147,0.375588563,0.429615394,873.1501832,858.6446886,803.8461538,807.8754579,755.4945055,-0.847412,0.156189,0.570862,3.349609,-13.637695,-0.86731,1,1,1,1,1,75,
51:30.9,1.68206828,0.620465857,0.044782285,0.633174348,1.00882131,0.519286441,-0.324695722,0.275853839,0.970279421,0.892562562,-0.06874248,0.556649567,0.773725184,0.78175581,0.520857533,0.636311059,0.205202877,0.934059112,0.498845951,0.462699278,845.3479853,817.1428571,807.4725275,817.5457875,652.7472527,-0.562378,0.153076,0.818848,2.332764,-37.683105,2.355194,1,1,1,1,1,75,
51:31.9,1.68206828,1.077297891,0.33254235,0.665712699,1.00882131,0.261554093,-0.703445023,0.315680712,0.970279421,0.497042781,0.011274576,0.501162192,0.773725184,0.422864885,0.40412395,0.562353394,0.205202877,0.900669645,0.158299788,0.3936058,838.4981685,765.1648352,768.3882784,797.8021978,722.8571429,0.057617,0.197083,0.983459,-4.187012,-25.032349,8.224487,1,1,1,1,1,75,
51:32.9,1.68206828,1.175540545,0.414042452,0.553494736,1.00882131,0.182333838,-0.533133248,0.10859564,0.970279421,0.487965929,0.075666013,0.466599688,0.773725184,0.473787827,0.339681831,0.478209546,0.205202877,0.828230829,0.012162729,0.330782318,645.4945055,751.4652015,774.4322344,808.6813187,746.2271062,0.213867,0.164734,0.935181,3.22998,-30.916595,4.254303,1,1,1,1,1,75,
51:33.9,1.68206828,1.156013206,0.22997275,1.000220862,1.00882131,0.183065416,-0.304046139,0.254660411,0.970279421,0.560851888,-0.019229351,0.813801696,0.773725184,0.433752784,0.170568371,0.507093955,0.205202877,0.844604721,-0.033390202,0.450137016,773.6263736,820.7692308,809.0842491,828.8278388,610.4395604,-0.052551,0.132263,0.989197,9.166565,38.09433,-40.262604,1,1,1,1,1,75,
51:34.7,,,,,,,,,,,,,,,,,,,,,,,,,,,,,,,,,,,,,,/muse/elements/blink
51:34.9,1.68206828,1.612763431,1.159427565,1.418281791,1.00882131,0.35952954,0.106600861,0.413875876,0.970279421,0.60162531,-0.027471996,0.699463095,0.773725184,0.217832446,0.17329785,0.478470087,0.205202877,0.846352397,-0.035155649,0.71720731,1045.201465,888.8644689,811.5018315,813.5164835,614.4688645,-0.696655,0.093201,0.708008,3.768311,18.460236,-2.796326,1,1,1,1,1,75,
51:35.9,1.68206828,1.720795196,1.212170857,1.22096349,1.00882131,0.602453551,0.328234295,0.543693338,0.970279421,0.874193735,0.02323204,0.408104453,0.773725184,0.231949921,0.300376017,0.603674012,0.205202877,0.895223318,0.086285896,0.644895187,888.0586081,842.5274725,803.8461538,811.5018315,883.2234432,-0.875183,0.098083,0.503357,6.714172,-2.086029,-4.037476,1,1,1,1,1,75,
51:36.9,1.68206828,1.551628406,1.152582626,0.865933783,1.00882131,0.56184858,0.066760539,0.626245647,0.970279421,0.97710832,0.390675454,0.777619263,0.773725184,0.432558007,0.493023791,0.735214232,0.205202877,0.927896564,0.400879812,0.511605077,339.6703297,832.4542125,825.6043956,840.1098901,842.1245421,-0.704407,0.145874,0.754456,-11.125488,-37.144775,4.067383,1,1,1,1,1,75,
51:37.9,1.68206828,1.403913388,0.343472033,0.821174785,1.00882131,0.512559351,0.098612228,0.707671957,0.970279421,0.810096437,0.383706848,0.783397246,0.773725184,0.411446919,0.377255771,0.499521956,0.205202877,0.959731756,0.077182873,0.297379011,916.6666667,744.2124542,785.3113553,796.1904762,743.4065934,-0.00592,0.15332,0.990479,4.710388,-33.159637,4.919739,1,1,1,1,1,75,
51:38.9,1.68206828,1.271799089,0.598501368,0.669416654,1.00882131,0.074408386,-0.12614323,0.411842142,0.970279421,0.536012671,0.250504596,0.560053863,0.773725184,0.389907609,0.214975822,0.175729168,0.205202877,0.892722304,-0.198579472,0.222175669,810.2930403,715.6043956,764.3589744,785.7142857,993.2234432,0.296265,0.140503,0.944336,5.106659,-9.97406,-0.478516,1,4,1,1,1,75,
51:39.9,1.68206828,1.165781181,0.374452216,0.599908244,1.00882131,0.0825778,-0.109002671,0.419375137,0.970279421,0.581713578,0.057029339,0.798323651,0.773725184,0.567799027,0.012218901,0.353563237,0.205202877,0.838342481,-0.220073025,0.526759885,799.010989,832.8571429,795.7875458,812.7106227,732.5274725,-0.122253,0.152283,0.984009,1.114044,28.359528,-9.293671,1,2,1,1,1,75,
51:40.9,1.68206828,1.41903042,0.837700455,0.609183513,1.00882131,0.357061481,-0.023741787,0.443687443,0.970279421,0.659629286,0.060087165,0.844773661,0.773725184,0.482663953,0.086827242,0.593008937,0.205202877,0.874564502,-0.302510109,0.628891208,452.0879121,867.5091575,821.5750916,806.6666667,801.8315018,-0.631653,0.046082,0.780579,6.908569,21.129456,-3.401947,1,4,1,1,1,75,
51:41.9,1.68206828,1.130124663,0.739934158,0.694391153,1.00882131,0.573272638,-0.009868628,0.387733085,0.970279421,0.402595664,0.350662877,0.897622911,0.773725184,0.417910226,0.314614299,0.602021644,0.205202877,0.836772826,0.164835376,0.481257975,1001.282051,859.047619,816.7399267,819.1575092,626.1538462,-0.856079,0.120483,0.542725,2.684174,-12.949829,3.469238,1,4,1,1,1,75,
51:42.9,1.68206828,0.925927497,0.53356054,0.859095573,1.00882131,0.275558244,-0.085071091,0.598367912,0.970279421,0.365870549,0.32679908,0.922558983,0.773725184,0.441555392,0.394270781,0.619463957,0.205202877,0.868074458,0.450352557,0.654850929,661.2087912,808.2783883,811.5018315,824.3956044,880.4029304,-0.686584,0.130371,0.735901,-0.142059,-33.64563,4.022522,1,2,1,1,1,75,
51:43.9,1.68206828,1.588120347,0.323363846,0.730301638,1.00882131,0.314635229,-0.20159508,0.384697953,0.970279421,0.499450013,0.199366088,0.704224143,0.773725184,0.324838027,0.336214723,0.508271719,0.205202877,0.943893176,0.244631746,0.431743729,760.7326007,757.1062271,782.8937729,800.2197802,591.9047619,-0.011902,0.15448,0.98584,2.332764,-33.765259,1.899109,1,2,1,1,1,75,
51:44.9,1.68206828,1.569062956,0.554809086,0.648374596,1.00882131,0.488939205,-0.470003516,0.003147462,0.970279421,0.583690683,-0.015814812,0.240757673,0.773725184,0.235009153,0.150956876,0.320920664,0.205202877,0.923386661,-0.093023312,0.158244207,585.8608059,755.0915751,782.4908425,803.8461538,666.8498168,0.234436,0.143127,0.968323,5.71228,-8.8974,-0.239258,1,2,1,1,1,75,
51:45.9,1.68206828,0.906589306,0.40635116,0.824420519,1.00882131,0.432483141,-0.403556871,0.361861758,0.970279421,0.668352315,-0.08933273,0.384252774,0.773725184,0.240564439,0.113284696,0.433574549,0.205202877,0.869239966,0.00827221,0.138422508,744.6153846,793.3699634,791.7582418,810.6959707,690.2197802,0.014282,0.119995,0.995483,3.9328,4.695435,-3.947754,1,2,1,1,1,75,
51:46.9,1.68206828,1.135145737,0.408433508,0.837997226,1.00882131,0.096888927,-0.158954902,0.46515165,0.970279421,0.494439983,0.142042688,0.42793104,0.773725184,0.247998226,0.214151296,0.397690915,0.205202877,0.854444522,0.05451908,0.307769149,929.1575092,873.1501832,807.4725275,806.2637363,772.8205128,-0.495361,0.13031,0.853394,7.536621,20.882721,-2.444916,1,2,1,1,1,75,
51:47.9,1.68206828,1.247506769,0.461771463,0.625299817,1.00882131,0.068723686,-0.224347996,0.458136102,0.970279421,0.373020512,0.054880956,0.819446228,0.773725184,0.313863674,0.383237369,0.558000469,0.205202877,0.873934767,0.153548713,0.236335771,1248.681319,855.018315,802.2344322,806.6666667,850.1831502,-0.826843,0.163635,0.587891,8.852539,-3.147736,-0.852356,1,2,1,1,1,75,
51:48.9,1.68206828,0.794823062,0.325921812,0.734567811,1.00882131,0.275555933,-0.188936161,0.492067531,0.970279421,0.358689881,0.000611849,0.914796213,0.773725184,0.385297665,0.562885426,0.70764118,0.205202877,0.888738092,0.336468538,0.403662959,1397.362637,815.1282051,823.1868132,821.978022,853.8095238,-0.67981,0.093567,0.72406,3.603821,-37.062531,-1.278534,1,4,1,1,1,75,
51:49.9,1.68206828,1.157695174,0.408791732,0.625700035,1.00882131,0.517729804,-0.426890928,0.207933518,0.970279421,0.343110656,0.136471087,0.840585941,0.773725184,0.255711532,0.526364847,0.546895193,0.205202877,0.826454365,0.246926905,0.469455539,873.5531136,744.6153846,790.952381,821.5750916,747.032967,-0.201294,0.103394,0.979797,5.869293,-35.469971,-0.70282,1,4,1,1,1,75,
51:50.9,1.68206828,1.079127529,0.498062754,0.51278281,1.00882131,0.154321231,-0.379337522,0.392646346,0.970279421,0.365445714,0.255060833,0.524596178,0.773725184,0.206084706,0.085759255,0.322898607,0.205202877,0.858764823,0.04356338,0.298858966,520.989011,726.4835165,773.6263736,803.4432234,963.003663,0.127625,0.098572,0.988342,2.841187,-4.254303,0.852356,1,2,1,1,1,75,
51:51.9,1.68206828,0.839821704,0.345691785,0.474781393,1.00882131,-0.020011935,-0.280530735,0.528136121,0.970279421,0.359613396,0.142128551,0.597642397,0.773725184,0.293329458,-0.01767736,0.392990391,0.205202877,0.841715416,-0.202464718,0.301774516,543.5531136,790.952381,786.5201465,801.025641,821.5750916,-0.044983,0.117004,1.005005,9.203949,12.568512,0.441132,1,1,1,1,1,75,
51:52.9,1.68206828,1.491814721,1.343716123,1.602509166,1.00882131,0.260870911,0.43449569,0.930592179,0.970279421,0.56260066,0.609178281,0.810225684,0.773725184,0.387049065,0.265747648,0.719579021,0.205202877,0.810309094,-0.167864546,0.600074787,676.5201465,867.9120879,817.9487179,817.9487179,486.7399267,-0.522156,0.07196,0.847778,0.171967,18.677063,-10.714264,1,1,1,1,1,75,
51:53.9,1.68206828,1.490318092,1.375633953,1.601616486,1.00882131,0.455212573,0.404432256,0.833009312,0.970279421,0.583046862,0.623800539,0.850900047,0.773725184,0.389536507,0.348135541,0.786736662,0.205202877,0.819512637,0.146335132,0.511424508,844.5421245,853.4065934,794.5787546,804.2490842,792.967033,-0.897888,-0.011902,0.455872,3.738403,4.269257,0.844879,1,1,1,1,1,75,
51:54.9,1.68206828,0.956836449,0.235089767,0.841272861,1.00882131,0.460865012,0.036931636,0.490402525,0.970279421,0.394170302,0.238009347,0.939811072,0.773725184,0.35133367,0.489036671,0.741431313,0.205202877,0.862952381,0.566827124,0.380263867,426.3003663,843.3333333,808.2783883,804.2490842,1107.252747,-0.704834,0.094055,0.699219,9.719849,-59.859314,11.118011,1,4,1,1,1,75,
51:55.9,1.68206828,1.477923929,0.679659436,1.462008161,1.00882131,0.13876344,0.041790919,0.996513942,0.970279421,0.344241997,0.244666007,0.916467764,0.773725184,0.366579156,0.431574748,0.654969385,0.205202877,0.869848051,0.341385792,0.346972365,469.4139194,741.7948718,786.9230769,794.981685,479.4871795,-0.030151,0.1427,0.995178,4.456177,-25.069733,2.863617,1,2,1,1,1,75,
51:56.9,1.68206828,1.50448564,0.699034862,1.338500265,1.00882131,-0.126810642,0.050358387,0.797778522,0.970279421,0.34907309,0.270552932,0.985252378,0.773725184,0.336222708,0.335361543,0.495917983,0.205202877,0.864881772,0.01104165,0.247221522,294.5421245,761.9413919,776.8498168,792.1611722,718.8278388,0.250671,0.103638,0.973633,3.618774,-12.837677,0.740204,1,4,1,1,1,75,
51:57.9,1.68206828,1.045234472,1.060818997,0.656435824,1.00882131,0.171810226,0.588985104,0.514584303,0.970279421,0.494798096,0.739494652,0.979682293,0.773725184,0.350218786,0.181394272,0.445167373,0.205202877,0.736249611,-0.080075549,0.220832412,431.5384615,777.6556777,776.4468864,817.9487179,880.8058608,0.31897,0.084167,0.946045,0.052338,-10.624542,13.839569,1,2,1,1,1,75,
51:58.9,1.68206828,1.111644746,1.394647373,0.812924923,1.00882131,0.513831711,0.957239873,0.683273535,0.970279421,0.625785062,0.880079079,0.951807453,0.773725184,0.29215431,0.15142165,0.612227886,0.205202877,0.809197604,0.039489394,0.435459819,492.7838828,766.3736264,792.5641026,851.7948718,1085.897436,0.325256,0.077515,0.937012,-0.927124,-0.448608,-5.024414,1,2,1,1,1,75,
51:59.3,,,,,,,,,,,,,,,,,,,,,,,,,,,,,,,,,,,,,,/muse/elements/blink
51:59.9,1.68206828,1.149484033,1.35986848,0.413091106,1.00882131,0.345517877,1.04975296,0.614949494,0.970279421,0.672800038,0.892909086,0.855483381,0.773725184,0.450481156,0.314289845,0.666263216,0.205202877,0.876279172,0.234116179,0.47991287,668.4615385,837.2893773,803.8461538,821.1721612,821.5750916,0.061829,0.150696,0.999451,9.129181,-6.39267,-26.280975,1,2,1,1,1,75,
52:00.6,,,,,,,,,,,,,,,,,,,,,,,,,,,,,,,,,,,,,,/muse/elements/blink
52:00.9,1.68206828,1.415562705,1.780543245,0.514499281,1.00882131,0.580168071,1.258878983,0.684810162,0.970279421,0.476210799,0.917977521,0.818322124,0.773725184,0.479802792,0.440870669,0.714108052,0.205202877,0.896405375,0.361390402,0.364381341,658.7912088,813.5164835,809.8901099,809.0842491,513.3333333,-0.002197,0.096741,0.993652,5.271149,1.278534,0.059814,1,2,1,1,1,75,
52:01.5,,,,,,,,,,,,,,,,,,,,,,,,,,,,,,,,,,,,,,/muse/elements/blink
52:01.9,1.68206828,1.079679837,1.587143981,0.514499281,1.00882131,0.360652124,0.973050249,0.684810162,0.970279421,0.168435931,0.829958789,0.818322124,0.773725184,0.344739163,0.440084263,0.714108052,0.205202877,0.812313355,0.145320771,0.364381341,1083.882784,794.981685,724.4688645,747.032967,674.9084249,0.222656,0.05188,0.964478,0.545807,17.248993,-40.920563,1,2,1,1,2,75,
52:02.5,,,,,,,,,,,,,,,,,,,,,,,,,,,,,,,,,,,,,,/muse/elements/blink
52:02.9,1.68206828,1.046513722,1.419766968,0.514499281,1.00882131,0.234872104,0.887912385,0.684810162,0.970279421,0.206062015,0.702977451,0.818322124,0.773725184,0.430526563,0.394134821,0.714108052,0.205202877,0.720136406,0.013839664,0.364381341,831.6483516,826.4102564,801.4285714,815.9340659,797.8021978,-0.15741,0.102051,0.986938,6.639404,12.650757,16.000366,1,2,1,1,2,75,
52:03.9,1.68206828,1.149367965,1.296702896,1.050951387,1.00882131,0.443088906,0.807258037,1.123192624,0.970279421,0.499817655,0.693473163,1.215999606,0.773725184,0.521441478,0.559674074,0.802861292,0.205202877,0.813793537,0.365727542,0.44860955,469.4139194,838.0952381,801.8315018,838.0952381,800.2197802,-0.290527,0.101257,0.956177,1.4505,-2.34024,10.041351,1,2,1,1,1,75,
52:04.9,1.68206828,0.843924019,0.920494721,1.15789143,1.00882131,0.065342219,0.544836035,1.085767217,0.970279421,0.622467829,0.508803658,1.431233775,0.773725184,0.534076471,0.557738132,0.920661745,0.205202877,0.78648073,0.466265302,0.60515548,300.1831502,804.6520147,778.4615385,801.8315018,674.5054945,-0.369385,0.128662,0.907532,37.870026,-29.989471,-102.424774,1,2,1,1,1,75,
52:05.9,1.68206828,1.752464391,1.174996647,1.290014575,1.00882131,1.088583488,1.016151916,1.207508815,0.970279421,0.875170838,0.9213099,1.491171277,0.773725184,0.693213972,0.547724939,1.046539719,0.205202877,0.842485737,0.38256768,0.769902427,557.2527473,802.2344322,786.1172161,870.3296703,642.2710623,-0.226868,0.118896,0.956299,-6.437531,1.009369,42.737427,1,2,1,1,1,75,
52:06.0,,,,,,,,,,,,,,,,,,,,,,,,,,,,,,,,,,,,,,/muse/elements/blink
52:06.9,1.68206828,1.752199539,1.137316846,1.205843715,1.00882131,0.795957514,1.022991215,1.258644288,0.970279421,0.517669853,0.917688863,1.357316734,0.773725184,0.508292885,0.616494477,1.181519377,0.205202877,0.834263581,0.476463896,0.88905539,536.3003663,797.3992674,796.1904762,799.010989,589.0842491,-0.190308,0.127991,0.994629,4.785156,-6.243134,-3.58139,1,1,1,1,1,75,
52:07.4,,,,,,,,,,,,,,,,,,,,,,,,,,,,,,,,,,,,,,/muse/elements/blink
52:07.9,1.68206828,0.198669698,0.819604757,0.728140271,1.00882131,-0.178514224,0.288439887,0.697364164,0.970279421,0.257498748,0.325943097,1.18655238,0.773725184,0.619671774,0.485976454,0.815839516,0.205202877,0.772271482,0.618581997,0.626497744,719.6336996,785.7142857,804.6520147,826.007326,1024.652015,-0.233337,0.221863,0.989624,17.121887,1.502838,23.955688,1,2,1,1,1,75,
52:08.3,,,,,,,,,,,,,,,,,,,,,,,,,,,,,,,,,,,,,,/muse/elements/blink
52:08.9,1.68206828,1.092046596,0.739032499,0.728140271,1.00882131,0.50864937,0.214822021,0.697364164,0.970279421,0.465532667,0.451917583,1.18655238,0.773725184,0.654350918,0.507193366,0.815839516,0.205202877,0.845083684,0.59320085,0.626497744,779.6703297,797.3992674,809.4871795,839.7069597,582.2344322,-0.160767,0.217773,0.968506,4.994507,-4.082336,2.287903,1,2,1,1,2,75,
52:09.0,,,,,,,,,,,,,,,,,,,,,,,,,,,,,,,,,,,,,,/muse/elements/blink
52:09.9,1.68206828,1.080183957,0.922233439,0.728140271,1.00882131,0.466577075,0.581762321,0.697364164,0.970279421,0.446671001,0.519618659,1.18655238,0.773725184,0.572086956,0.655523441,0.815839516,0.205202877,0.971103754,0.527388047,0.626497744,637.8388278,770.4029304,801.8315018,798.6080586,1238.205128,-0.245239,0.240784,0.950623,1.42807,-8.441315,-4.972076,1,2,1,1,2,75,
52:10.3,,,,,,,,,,,,,,,,,,,,,,,,,,,,,,,,,,,,,,/muse/elements/blink
52:10.9,1.68206828,0.700600566,0.89050108,0.728140271,1.00882131,0.119184199,0.549994935,0.697364164,0.970279421,0.363330615,0.353521048,1.18655238,0.773725184,0.559787694,0.614540004,0.815839516,0.205202877,0.926992749,0.389364124,0.626497744,518.1684982,819.5604396,798.6080586,802.6373626,645.8974359,-0.221252,0.300903,0.963806,6.445007,-7.020721,9.966583,1,2,1,1,2,75,
52:11.9,1.68206828,0.834862813,1.218951827,0.912400763,1.00882131,0.364836702,0.863534286,0.933657453,0.970279421,0.355224991,0.540245122,0.954153091,0.773725184,0.628443877,0.612467444,1.049860192,0.205202877,0.966741701,0.452862073,0.858546021,787.3260073,802.2344322,791.7582418,816.3369963,599.1575092,-0.118103,0.174255,0.967957,-1.674805,-6.998291,9.562836,1,1,1,1,1,75,
52:12.9,1.68206828,0.944967062,1.206818857,0.717894411,1.00882131,0.401978146,0.769495822,0.737234364,0.970279421,0.424412267,0.515897166,1.279258432,0.773725184,0.708052841,0.713480131,1.212893502,0.205202877,0.911121578,0.666393455,0.88219078,369.8901099,815.9340659,781.2820513,848.974359,1277.692308,-0.237732,0.354675,0.906067,9.286194,1.173859,-5.517883,1,1,1,1,1,75,
52:13.9,1.68206828,1.305138465,1.154110365,0.89484083,1.00882131,0.768538311,0.930308275,0.609931779,0.970279421,0.63462085,0.553594764,0.945219243,0.773725184,0.662854942,0.521012967,1.06063058,0.205202877,0.879577056,0.665380149,0.694061763,1039.56044,794.1758242,790.5494505,841.7216117,978.3150183,-0.357056,0.218811,0.915405,4.28421,-3.9328,-22.78183,1,4,1,1,1,75,
52:14.9,1.68206828,1.0719294,0.883514659,0.687274485,1.00882131,0.17125051,0.689548489,0.743619865,0.970279421,0.484483156,0.593459633,0.913696074,0.773725184,0.681753622,0.518463364,0.924909636,0.205202877,0.815097229,0.485863766,0.811820645,1625.824176,812.3076923,809.0842491,812.3076923,802.2344322,-0.393616,0.197205,0.900269,4.665527,-3.760834,0.620575,1,1,1,1,1,75,
52:15.6,,,,,,,,,,,,,,,,,,,,,,,,,,,,,,,,,,,,,,/muse/elements/jaw_clench
52:15.9,1.68206828,0.70704918,0.785027484,0.702551011,1.00882131,0.0856582,0.438784362,0.632960029,0.970279421,0.519885047,0.708624564,0.925959101,0.773725184,0.697361118,0.628669047,0.98612641,0.205202877,0.829960236,0.633562653,0.838361235,0,801.8315018,785.7142857,803.040293,951.7216117,-0.341553,0.173401,0.931274,1.585083,-8.291779,1.024323,1,4,1,1,1,75,
52:16.9,1.68206828,0.83401418,0.847205253,0.797613278,1.00882131,0.048815598,0.514171094,0.737110707,0.970279421,0.569345379,0.636783343,0.822037245,0.773725184,0.614046491,0.717174088,1.172468762,0.205202877,0.743524951,0.824880735,0.836953867,0,806.2637363,795.3846154,793.3699634,800.2197802,-0.36377,0.154602,0.934448,6.616974,-8.119812,-21.35376,1,4,1,1,1,75,
52:17.9,1.68206828,0.549022663,0.749893069,0.782067401,1.00882131,0.107194054,0.2994679,0.786726074,0.970279421,0.619672494,0.526981282,1.070723596,0.773725184,0.530624359,0.588980482,0.739213692,0.205202877,0.704396301,0.71469261,0.610686028,17.72893773,812.7106227,808.6813187,844.5421245,750.2564103,-0.425476,0.133423,0.922546,5.099182,-9.532928,-3.783264,1,4,1,1,1,75,
52:18.8,,,,,,,,,,,,,,,,,,,,,,,,,,,,,,,,,,,,,,/muse/elements/blink
52:18.9,1.68206828,0.773552392,0.691493526,1.143030103,1.00882131,0.366674684,-0.032773773,1.014320808,0.970279421,0.415400988,0.358078827,1.14289609,0.773725184,0.570392888,0.454159264,0.550232452,0.205202877,0.662811813,0.487184669,0.430691611,1013.772894,798.6080586,798.2051282,813.9194139,730.9157509,-0.308411,0.138855,0.958069,4.26178,0.971985,12.890015,1,4,1,1,1,75,
52:19.9,1.68206828,1.006374814,0.683976621,1.382484751,1.00882131,0.360987544,0.211945842,1.254846298,0.970279421,0.394887271,0.555485456,1.294710269,0.773725184,0.698762314,0.482457805,0.603940086,0.205202877,0.732813261,0.493293493,0.589929786,989.1941392,811.9047619,809.0842491,828.021978,688.6080586,-0.337646,0.125916,0.944763,14.482574,-12.396545,-32.269897,1,4,1,1,1,75,
52:20.9,1.68206828,1.245712153,0.988148308,0.786772335,1.00882131,0.155474522,0.153661889,0.614219639,0.970279421,0.347784001,0.53882542,0.923734146,0.773725184,0.571776446,0.619943402,0.765854648,0.205202877,0.784765973,0.619437485,0.65240471,327.1794872,766.7765568,843.7362637,822.7838828,743.003663,-0.338806,0.175964,0.933838,-23.021088,10.818939,88.764648,1,4,1,1,1,75,
52:21.9,1.68206828,1.602764668,1.500058997,0.569812251,1.00882131,0.867630123,0.966647461,0.444075669,0.970279421,0.658463142,0.567936655,1.098457721,0.773725184,0.318511249,0.704170483,1.114495797,0.205202877,0.784166722,0.54619223,1.236551289,523.4065934,827.6190476,778.0586081,792.1611722,740.5860806,-0.364929,0.232422,0.904724,6.669312,-5.929108,-3.992615,1,4,1,1,1,75,
52:22.9,1.68206828,1.461475376,1.338453553,0.732915275,1.00882131,0.755424661,0.847621951,0.253661745,0.970279421,0.66393782,0.527446348,1.076171807,0.773725184,0.485052763,0.738289672,1.380354858,0.205202877,0.82999559,0.652071828,1.634701613,1626.227106,821.978022,770,809.0842491,591.0989011,-0.393982,0.231934,0.860229,24.39682,-22.385559,-73.011017,1,4,1,1,1,75,
52:23.5,,,,,,,,,,,,,,,,,,,,,,,,,,,,,,,,,,,,,,/muse/elements/blink
52:23.9,1.68206828,1.25935015,1.367399254,0.732915275,1.00882131,0.986984722,1.042232515,0.253661745,0.970279421,0.749673511,0.684834104,1.076171807,0.773725184,0.632843157,0.603798627,1.380354858,0.205202877,0.879738423,0.613413328,1.634701613,1220.879121,784.9084249,794.1758242,821.978022,645.8974359,-0.314087,0.115112,0.95813,20.254669,-24.800568,-63.836975,1,2,1,1,1,75,
52:24.9,1.68206828,1.540280773,1.502005011,1.063560252,1.00882131,1.180272213,1.20233211,0.72444038,0.970279421,0.87909049,0.751831347,0.463466541,0.773725184,0.563192623,0.618258221,1.172098607,0.205202877,0.853728208,0.463114248,1.228199953,927.5457875,768.3882784,826.4102564,854.6153846,1183.003663,-0.339478,0.028137,0.949341,1.26358,-4.882355,5.644989,1,2,1,1,2,75,
52:25.8,,,,,,,,,,,,,,,,,,,,,,,,,,,,,,,,,,,,,,/muse/elements/blink
52:25.9,1.68206828,0.807812031,1.256851697,1.084840069,1.00882131,0.568167747,0.856643752,0.999452154,0.970279421,0.454594958,0.789693603,1.029729692,0.773725184,0.724646429,0.630992081,1.058555805,0.205202877,0.881668635,0.514758281,1.271744515,901.3553114,804.6520147,787.3260073,826.4102564,1126.996337,-0.427246,0.132141,0.919312,-7.521667,-4.807587,44.487,1,2,1,1,1,75,
52:26.9,1.68206828,1.112475768,1.389444296,1.037667498,1.00882131,0.645956987,0.901749741,0.525499232,0.970279421,0.479522938,0.769750068,0.470144097,0.773725184,0.728614137,0.584958452,0.819167293,0.205202877,0.867271554,0.68544633,1.06775305,1099.194139,806.2637363,799.010989,806.6666667,652.3443223,-0.344788,0.150024,0.934753,0.829926,-15.484467,1.973877,1,1,1,1,1,75,
52:27.9,1.68206828,0.891871663,1.111267428,0.776448242,1.00882131,0.418907188,0.663507974,0.519355917,0.970279421,0.420985496,0.532184552,0.623340355,0.773725184,0.564489134,0.574549905,0.857433132,0.205202877,0.734321386,0.655751491,0.461949361,764.3589744,811.9047619,792.5641026,802.6373626,668.0586081,-0.368591,0.150146,0.937439,4.957123,0.897217,-0.291595,1,2,1,1,1,75,
52:28.9,1.68206828,0.256368705,0.407421688,0.778045088,1.00882131,-0.06021049,0.195548197,0.932617674,0.970279421,0.189730836,0.45080922,1.024962516,0.773725184,0.504875325,0.69044399,0.850415933,0.205202877,0.679232103,0.571540881,0.509001145,976.3003663,790.5494505,808.2783883,805.0549451,710.7692308,-0.378662,0.137573,0.921631,3.880463,-6.542206,-3.065491,1,2,1,1,1,75,
52:29.6,,,,,,,,,,,,,,,,,,,,,,,,,,,,,,,,,,,,,,/muse/elements/blink
52:29.9,1.68206828,0.195326452,0.730371145,0.895369952,1.00882131,0.166406374,0.2883905,0.895608206,0.970279421,0.242135019,0.394894773,1.117723967,0.773725184,0.549345236,0.53979498,0.621375463,0.205202877,0.825022803,0.495054992,0.270699224,671.2820513,804.6520147,792.1611722,812.3076923,632.6007326,-0.379883,0.135193,0.924377,3.835602,-7.49176,-1.914062,1,2,1,1,1,75,
52:30.9,1.68206828,-0.004643117,0.676171034,1.048602078,1.00882131,0.033059848,0.38003492,0.877670264,0.970279421,0.410101234,0.394726688,1.055663929,0.773725184,0.447734799,0.630126287,0.62293173,0.205202877,0.796130217,0.536025686,0.342221491,869.9267399,802.6373626,816.7399267,809.8901099,637.4358974,-0.367371,0.137085,0.929443,4.530945,-7.84317,-1.338348,1,2,1,1,1,75,
52:31.9,1.68206828,0.335832778,0.343457863,1.131464228,1.00882131,-0.005193562,0.104791541,0.911894742,0.970279421,0.305280516,0.323668691,0.919993562,0.773725184,0.458402953,0.491248876,0.480775548,0.205202877,0.733627555,0.500901205,0.28651211,1011.758242,812.3076923,811.5018315,819.96337,664.4322344,-0.369202,0.134033,0.927063,3.566437,-7.977753,-2.444916,1,2,1,1,1,75,
52:32.9,1.68206828,0.424747159,0.400343229,0.963798351,1.00882131,0.063057682,0.171538862,0.883894614,0.970279421,0.223879318,0.139623713,0.911248223,0.773725184,0.472114009,0.467078477,0.527203983,0.205202877,0.718277745,0.479838013,0.436365881,698.2783883,800.6227106,792.967033,809.4871795,737.7655678,-0.373474,0.135681,0.941223,0.261688,-2.990723,-4.515991,1,2,1,1,1,75,
52:33.9,1.68206828,0.441596772,0.50456067,0.510468438,1.00882131,-0.156658323,0.189199406,0.055810789,0.970279421,0.2076563,0.248559147,0.652235491,0.773725184,0.503979387,0.573856875,0.521969395,0.205202877,0.663069801,0.550735796,0.46422568,695.4578755,778.8644689,797.8021978,809.4871795,1153.186813,-0.390808,0.130981,0.913635,2.549591,-6.06369,-3.596344,1,2,1,1,1,75,
52:34.9,1.68206828,0.342268221,0.374257487,0.537234107,1.00882131,-0.119589715,0.06893105,0.213250751,0.970279421,0.421690009,0.306310636,0.768177557,0.773725184,0.571114782,0.686255456,0.689505461,0.205202877,0.777478756,0.50831173,0.460552113,571.7582418,800.2197802,803.040293,796.1904762,690.2197802,-0.339478,0.10083,0.926453,-0.934601,-14.527435,-9.069366,1,2,1,1,1,75,
52:35.9,1.68206828,0.243336362,0.5154722,0.452102267,1.00882131,0.020558315,-0.136125406,0.1750276,0.970279421,0.466290813,0.0914027,0.725732466,0.773725184,0.683670052,0.587367622,0.705276262,0.205202877,0.784806172,0.585910919,0.47300897,190.989011,797.3992674,800.6227106,806.6666667,655.970696,-0.363831,0.154541,0.922302,4.299164,-9.876862,-2.108459,1,2,1,1,1,75,
52:36.9,1.68206828,0.158699185,0.556391458,0.601873996,1.00882131,-0.139172742,0.411623387,0.464713641,0.970279421,0.349785077,0.200328749,0.724007227,0.773725184,0.748423088,0.645531506,0.730979929,0.205202877,0.64271435,0.510004159,0.617718813,1581.904762,784.9084249,787.3260073,803.040293,1085.494505,-0.384521,0.280945,0.923828,-7.162781,-3.401947,-7.028198,1,4,1,1,1,75,
52:37.9,1.68206828,0.435425858,0.685978407,0.908209749,1.00882131,-0.056159656,0.534593471,0.56605525,0.970279421,0.231646095,0.324622094,0.887828445,0.773725184,0.637130627,0.751534455,0.753009281,0.205202877,0.699720084,0.529686349,0.605105961,661.2087912,814.7252747,786.5201465,811.0989011,640.2564103,-0.372498,-0.009338,0.941895,36.718597,0.844879,3.476715,1,4,1,1,1,75,
52:38.9,1.68206828,0.909269143,0.565703389,0.97998687,1.00882131,-0.050023463,0.481696181,0.667493047,0.970279421,0.283915138,0.372458553,0.824089786,0.773725184,0.658731571,0.686418444,0.739930125,0.205202877,0.813551749,0.388500346,0.376469053,1147.948718,824.7985348,803.4432234,805.0549451,857.032967,-0.36554,0.194763,0.881287,-11.850739,-8.03009,-2.699127,1,2,1,1,1,75,
52:39.9,1.68206828,0.785004944,0.70980788,0.893338663,1.00882131,0.062592076,0.234095774,0.799187451,0.970279421,0.332711997,0.385554573,0.829661249,0.773725184,0.6821472,0.599561664,0.910199781,0.205202877,0.884406889,0.335858713,0.477282352,808.2783883,807.8754579,805.0549451,811.5018315,918.6813187,-0.38324,0.094421,0.927551,2.474823,1.487885,-3.775787,1,2,1,1,1,75,
52:40.9,1.68206828,0.430350376,0.542970694,0.736770939,1.00882131,0.239558235,-0.05002531,0.32753647,0.970279421,0.549528843,0.376257335,0.771902173,0.773725184,0.621176312,0.609457579,0.955483067,0.205202877,0.865192483,0.47535347,0.487176588,1411.062271,812.7106227,808.6813187,836.8864469,681.3553114,-0.380859,0.098572,0.931885,3.648682,-1.540222,-4.785156,1,2,1,1,1,75,
52:41.9,1.68206828,0.105061433,-0.017168839,0.451220727,1.00882131,0.084438141,-0.001670114,0.524552995,0.970279421,0.372032189,0.267021633,0.599093931,0.773725184,0.531677412,0.610586486,0.730263396,0.205202877,0.792701705,0.352932944,0.282991873,847.3626374,800.6227106,806.2637363,819.1575092,655.5677656,-0.375,0.104553,0.932251,5.532837,-8.202057,1.704712,1,2,1,1,1,75,
52:42.9,1.68206828,-0.082449643,0.386641193,0.676034231,1.00882131,-0.215780698,-0.126750568,0.771982381,0.970279421,0.33211055,0.089714429,0.920647901,0.773725184,0.363791767,0.615013451,0.673052246,0.205202877,0.755795077,0.516516229,0.449684733,828.4249084,803.040293,810.2930403,794.5787546,834.4688645,-0.389954,0.108948,0.922546,4.07486,-12.927399,1.308441,1,1,1,1,1,75,
52:43.9,1.68206828,0.20835998,0.565666333,0.962122105,1.00882131,-0.266581717,0.145761744,0.862175532,0.970279421,0.37411533,-0.067457807,0.940377444,0.773725184,0.522721871,0.772066904,0.841174356,0.205202877,0.773348855,0.734872685,0.667311424,1019.81685,799.4139194,815.9340659,802.6373626,675.7142857,-0.396912,0.101562,0.916931,3.401947,-8.538513,-0.291595,1,2,1,1,1,75,
52:44.9,1.68206828,0.313368951,-0.004917677,0.90622596,1.00882131,-0.247277569,-0.022995876,0.563334103,0.970279421,0.16634775,0.061506751,0.797922387,0.773725184,0.594705374,0.791528614,0.812717262,0.205202877,0.602984636,0.603784134,0.583475902,891.2820513,797.3992674,799.8168498,811.5018315,661.6117216,-0.419006,0.099121,0.917297,9.181519,-8.957214,-11.207733,1,1,1,1,1,70,
52:45.9,1.68206828,0.25273653,0.096601551,0.715343562,1.00882131,0.108591136,-0.091547111,0.667444402,0.970279421,0.30758687,0.11590449,1.031044538,0.773725184,0.630096887,0.700142385,0.655744997,0.205202877,0.555440672,0.492318596,0.450072727,809.4871795,794.981685,806.2637363,792.967033,828.4249084,-0.367737,0.122498,0.92926,3.9328,-6.377716,-0.657959,1,1,1,1,1,70,
52:46.9,1.68206828,0.527526413,0.611339131,0.619868637,1.00882131,0.184637266,0.263677088,0.60409526,0.970279421,0.386774618,0.457390193,1.057860512,0.773725184,0.538757116,0.699903296,0.6428186,0.205202877,0.628616374,0.389844663,0.328975265,889.2673993,792.967033,803.040293,813.5164835,772.014652,-0.353394,0.112915,0.930176,5.15152,3.701019,-4.620667,1,1,1,1,1,70,
52:47.9,1.68206828,0.649989076,0.951773052,0.586552546,1.00882131,0.220269525,0.552579592,0.430232837,0.970279421,0.388849398,0.521905741,0.92355453,0.773725184,0.508388501,0.640564775,0.747727514,0.205202877,0.747206067,0.379885964,0.417195088,863.0769231,805.8608059,794.5787546,794.981685,676.9230769,-0.326477,0.127258,0.949402,1.114044,-16.052704,4.538422,1,1,1,1,1,70,
52:48.9,1.68206828,0.514128804,0.562868938,0.75605896,1.00882131,-0.082006087,0.348481999,0.568993183,0.970279421,0.286590677,0.363484959,0.87310602,0.773725184,0.569617993,0.788515079,0.756906256,0.205202877,0.663082166,0.389090905,0.480724827,828.4249084,805.4578755,798.6080586,805.0549451,700.6959707,-0.236267,0.091797,0.97229,1.764526,-10.744171,-18.490143,1,1,1,1,1,70,
52:49.4,,,,,,,,,,,,,,,,,,,,,,,,,,,,,,,,,,,,,,/muse/elements/blink
52:49.7,,,,,,,,,,,,,,,,,,,,,,,,,,,,,,,,,,,,,,/muse/elements/blink
52:49.9,1.68206828,0.900854764,1.079696568,0.734175749,1.00882131,0.526383256,0.592746744,0.465262083,0.970279421,0.375469797,0.555793839,0.744112842,0.773725184,0.527691203,0.645557954,0.626681504,0.205202877,0.724297002,0.235161114,0.510404562,771.6117216,789.3406593,779.6703297,788.1318681,696.2637363,-0.030884,0.08197,0.993225,4.127197,-11.783447,2.773895,1,1,1,1,1,70,
52:50.9,1.68206828,0.936793928,1.216754078,0.975228482,1.00882131,0.432889584,0.645767055,0.755692831,0.970279421,0.373709677,0.724155847,0.718205668,0.773725184,0.395601714,0.512874002,0.580026639,0.205202877,0.652944896,0.261269413,0.50769143,807.8754579,793.3699634,790.952381,788.9377289,821.1721612,-0.102478,0.049988,0.989563,1.652374,-12.680664,-2.033691,1,1,1,1,1,70,
52:51.9,1.68206828,0.776062343,0.925198703,1.229103566,1.00882131,0.257326642,0.457563264,1.003099104,0.970279421,0.358518744,0.718917681,1.168001349,0.773725184,0.396334687,0.639987429,0.864982716,0.205202877,0.722054122,0.316413936,0.618363946,799.010989,795.7875458,795.3846154,807.8754579,739.7802198,-0.163269,0.069519,0.982422,7.858124,1.742096,2.930908,1,1,1,1,1,70,
52:52.9,1.68206828,0.77480517,0.535660518,1.263789713,1.00882131,-0.242832102,-0.097018747,1.009944162,0.970279421,0.277691779,-0.085123654,1.190554405,0.773725184,0.359594119,0.557848214,0.682268349,0.205202877,0.712756586,0.385312649,0.44986852,744.2124542,794.1758242,784.1025641,799.010989,1243.443223,-0.215759,0.108521,0.975647,12.351685,-1.525269,6.235657,1,1,1,1,1,70,
52:53.9,1.68206828,0.769105807,0.755902734,0.712814904,1.00882131,0.103583661,0.143285338,0.831093207,0.970279421,0.324440203,0.120927793,1.071114119,0.773725184,0.396339154,0.658006372,0.693390476,0.205202877,0.692932047,0.576923974,0.465801002,776.8498168,808.2783883,803.8461538,807.8754579,791.7582418,-0.250793,0.076538,0.973328,4.239349,-6.06369,-1.719666,1,1,1,1,1,70,
52:54.9,1.50007907,0.340679381,0.432021123,0.635349221,0.855733362,0.026388068,-0.007937824,0.430126587,1.190562725,0.311688891,0.151563887,0.830765334,0.781026825,0.429876523,0.57997308,0.631919293,0.500697309,0.748236547,0.608254751,0.336563156,834.4688645,806.6666667,798.2051282,813.9194139,578.6080586,-0.285583,0.144409,0.959717,2.923431,-6.4151,-2.699127,1,1,1,1,1,70,
52:55.9,1.671735647,0.433448153,0.789327737,1.101462741,1.129739203,-0.052428697,0.441530572,0.41853682,1.279358473,0.345557689,0.463105215,0.674072589,0.752678021,0.385348147,0.562033022,0.74397607,0.42845049,0.633426433,0.563776707,0.630793464,831.6483516,803.8461538,788.1318681,828.4249084,597.1428571,-0.313049,0.122498,0.952454,4.187012,-7.745972,-0.239258,1,1,1,1,1,75,
52:56.9,1.927570357,0.194192244,0.74739121,0.770133746,1.227670611,-0.121677498,0.254434724,0.53609796,0.9028159,0.19131927,0.356511593,0.61527682,0.798362855,0.512151344,0.547906629,0.745636436,0.342018493,0.558280586,0.459475651,0.442290068,847.3626374,803.8461538,788.1318681,803.4432234,625.3479853,-0.344849,0.114136,0.938538,3.618774,-17.824707,0.388794,1,1,1,1,1,75,
52:57.9,1.927570357,-0.298521681,0.29503165,0.764603578,1.227670611,-0.167517462,0.177431486,0.535870654,0.9028159,0.204990423,0.273769445,0.441149287,0.798362855,0.499446969,0.548858427,0.510431262,0.342018493,0.58414358,0.46610401,0.349896161,840.9157509,803.040293,807.8754579,819.5604396,664.8351648,-0.366455,0.11792,0.935669,2.145844,-10.422668,1.151428,1,1,1,1,1,75,
52:58.9,1.927570357,0.141349292,0.461696054,0.54593242,1.227670611,-0.024781394,0.174284994,0.297189126,0.9028159,0.339513164,0.343014344,0.281151818,0.798362855,0.460084722,0.493297982,0.776199304,0.342018493,0.674387984,0.467092738,0.540029569,688.6080586,803.040293,818.3516484,811.0989011,824.7985348,-0.318054,0.109924,0.935791,3.977661,-6.587067,-2.257996,1,1,1,1,1,75,
52:59.9,1.927570357,0.14326844,0.349530009,0.616544382,1.227670611,-0.038192621,0.197241247,0.473516062,0.9028159,0.362472927,0.401496624,0.828366718,0.798362855,0.541247625,0.666355711,0.881015476,0.342018493,0.708241701,0.569408591,0.439216743,866.3003663,824.7985348,916.6666667,729.3040293,711.978022,-0.746704,0.138367,0.672241,36.718597,122.52243,-30.580139,1,1,1,1,1,75,
53:00.0,,,,,,,,,,,,,,,,,,,,,,,,,,,,,,,,,,,,,,/muse/elements/blink
53:00.9,1.927570357,1.14548275,0.345183982,0.791159387,1.227670611,0.07091678,0.05438213,0.765815061,0.9028159,0.742084001,0.274788976,0.822675011,0.798362855,0.643241402,0.655451706,0.81986946,0.342018493,0.810006064,0.723935332,0.150945752,946.4835165,168.8278388,122.8937729,390.8424908,803.4432234,-1.078125,0.026245,-0.203796,0.067291,-74.865265,18.819122,1,1,1,1,1,75,
53:00.9,,,,,,,,,,,,,,,,,,,,,,,,,,,,,,,,,,,,,,/muse/elements/blink
53:01.7,,,,,,,,,,,,,,,,,,,,,,,,,,,,,,,,,,,,,,/muse/elements/blink
53:01.9,1.927570357,1.52188658,0.487424993,0.791159387,1.227670611,0.295153702,0.176254709,0.765815061,0.9028159,0.690674902,0.274788976,0.822675011,0.798362855,0.762467582,0.60693457,0.81986946,0.342018493,0.823706526,0.766493192,0.150945752,301.3919414,1626.630037,633.4065934,823.992674,842.9304029,0.888489,-0.053162,0.600708,-3.058014,-10.706787,-0.904694,1,4,1,4,1,75,
53:02.2,,,,,,,,,,,,,,,,,,,,,,,,,,,,,,,,,,,,,,/muse/elements/jaw_clench
53:02.2,,,,,,,,,,,,,,,,,,,,,,,,,,,,,,,,,,,,,,/muse/elements/blink
53:02.6,,,,,,,,,,,,,,,,,,,,,,,,,,,,,,,,,,,,,,/muse/elements/jaw_clench
53:02.9,1.927570357,1.52188658,0.487424993,0.791159387,1.227670611,0.295153702,0.176254709,0.765815061,0.9028159,0.690674902,0.274788976,0.822675011,0.798362855,0.762467582,0.60693457,0.81986946,0.342018493,0.823706526,0.766493192,0.150945752,970.6593407,982.7472527,757.5091575,709.1575092,693.040293,-0.145569,0.26355,0.977417,19.342499,-7.544098,-0.859833,1,4,4,2,2,75,
53:03.9,1.927570357,1.52188658,0.487424993,0.99060043,1.227670611,0.295153702,0.176254709,0.297520051,0.9028159,0.690674902,0.274788976,0.698602154,0.798362855,0.762467582,0.60693457,0.67727399,0.342018493,0.823706526,0.766493192,0.64809845,1431.611722,928.7545788,786.5201465,711.5750916,667.6556777,-0.295654,0.375854,0.896851,-0.306549,-7.207642,-7.349701,1,4,1,1,2,75,
53:04.9,1.927570357,1.52188658,1.05512189,1.130648305,1.227670611,0.295153702,0.270294888,0.733625778,0.9028159,0.690674902,0.250821499,0.869057598,0.798362855,0.762467582,0.60689578,0.573725157,0.342018493,0.823706526,0.209482999,0.514499032,975.4945055,891.6849817,796.996337,745.4212454,895.3113553,-0.348999,0.245911,0.915405,2.138367,-6.235657,-2.69165,1,2,1,1,1,75,
53:05.9,1.927570357,0.787668175,0.776783165,0.908103315,1.227670611,0.579214861,-0.004441871,0.671152116,0.9028159,0.611899537,0.148810126,0.700008235,0.798362855,0.590145589,0.735959254,0.567717167,0.342018493,1.197060977,0.32881749,0.46339571,732.5274725,857.4358974,803.4432234,775.6410256,635.4212454,-0.34436,0.19043,0.926208,4.104767,-7.267456,-3.529053,1,4,1,1,1,70,
53:06.9,1.927570357,0.731159481,0.182850892,0.874438318,1.227670611,0.341903669,-0.168612271,0.447823271,0.9028159,0.518236717,0.243160747,0.543755038,0.798362855,0.606670179,0.712332505,0.619009899,0.342018493,1.177816168,0.533243797,0.352767518,870.7326007,797.8021978,810.2930403,793.7728938,1074.212454,-0.338501,0.156494,0.92395,13.847046,-16.486359,-42.236481,1,2,1,1,1,70,
53:07.9,1.927570357,1.056246871,0.111679001,0.867743489,1.227670611,0.217824656,-0.089553567,0.530317643,0.9028159,0.338896834,0.349725475,0.827580885,0.798362855,0.630464151,0.597427244,0.785410359,0.342018493,1.088816531,0.393025146,0.582239349,865.4945055,809.8901099,814.7252747,816.7399267,856.2271062,-0.308411,0.124573,0.955017,11.604004,-12.254486,-35.477448,1,2,1,1,1,70,
53:08.9,1.927570357,0.849770904,0.295098407,0.704268654,1.227670611,0.19481462,-0.005032791,0.629933925,0.9028159,0.465314352,0.154775688,0.937715856,0.798362855,0.657565242,0.55123763,0.752585299,0.342018493,1.091489496,0.280945335,0.501115708,579.8168498,788.1318681,799.4139194,813.5164835,769.5970696,-0.289429,0.037842,0.959045,4.732819,-10.273132,-27.036133,1,1,1,1,1,70,
53:09.9,1.927570357,1.298393161,1.037730385,0.985868318,1.227670611,0.302225568,0.157185124,0.512329395,0.9028159,0.619708823,0.499309799,0.683626496,0.798362855,0.700255289,0.453137993,0.982616644,0.342018493,1.108539965,0.218848359,0.783960805,1003.699634,786.1172161,784.5054945,785.3113553,666.043956,-0.327759,0.13623,0.962341,-2.15332,-2.041168,62.147217,1,2,1,1,1,70,
53:10.9,1.927570357,1.632889199,1.121280394,1.212024358,1.227670611,0.449766006,0.366437613,0.707008086,0.9028159,0.675813321,0.555727856,0.684431262,0.798362855,0.64398095,0.40304623,0.877569825,0.342018493,1.103913728,0.267640639,0.807794332,896.5201465,756.7032967,787.3260073,789.7435897,1060.10989,-0.268494,0.131165,0.952881,0.568237,-7.574005,29.929657,1,4,1,1,1,70,
53:11.9,1.927570357,1.153174185,0.48099118,0.556889858,1.227670611,0.142634286,0.003260302,0.504735006,0.9028159,0.582469712,0.27976452,0.508504003,0.798362855,0.455924258,0.356180304,0.877125718,0.342018493,1.13876008,0.139536963,0.524242998,844.9450549,770.4029304,779.2673993,803.4432234,566.5201465,-0.258484,0.132629,0.973999,-5.345917,0.097198,20.404205,1,2,1,1,1,70,
53:12.9,1.927570357,1.134761965,0.636418907,0.17192991,1.227670611,0.17459251,0.152287534,0.201944671,0.9028159,0.722156406,0.292951541,1.002580583,0.798362855,0.65262871,0.463149356,1.016104762,0.342018493,1.137710208,0.17118882,0.65374663,885.2380952,753.0769231,794.1758242,807.8754579,1059.70696,-0.243042,0.148071,0.99408,12.172241,-8.00766,-46.356201,1,2,1,1,1,70,
53:13.9,1.927570357,0.917617218,0.697409578,0.409891904,1.227670611,0.054019975,0.259223011,0.537013032,0.9028159,0.722097906,0.453339748,0.947554339,0.798362855,0.600402744,0.478099058,0.746193006,0.342018493,1.080958187,0.174137809,0.479127052,767.5824176,809.8901099,786.9230769,804.2490842,793.3699634,-0.322815,0.141785,0.947449,17.039642,-8.942261,-39.028931,1,1,1,1,1,70,
53:14.9,1.927570357,0.887977524,0.409573823,0.672529866,1.227670611,-0.101047397,-0.292501581,0.483418257,0.9028159,0.357204216,0.30845352,0.793367706,0.798362855,0.587263592,0.462188257,0.770155346,0.342018493,1.047752674,0.115451609,0.575802362,875.1648352,861.8681319,796.5934066,826.8131868,606.8131868,-0.297424,0.077087,0.943298,4.209442,-9.241333,-17.667694,1,2,1,1,1,70,
53:15.9,1.927570357,1.272786362,0.456286127,0.706958093,1.227670611,0.07210501,-0.243722121,0.380380271,0.9028159,0.244256778,0.161782076,0.952659546,0.798362855,0.691275681,0.398098493,1.011129509,0.342018493,1.10017688,0.149872679,0.759767328,817.9487179,829.6336996,785.3113553,809.0842491,703.1135531,-0.320496,0.111267,0.94281,-4.201965,-5.091705,33.010101,1,1,1,1,1,75,
53:16.9,1.927570357,1.077437093,0.248084778,0.680683608,1.227670611,0.145458073,-0.235144207,0.45965652,0.9028159,0.216207168,0.060975242,0.940517774,0.798362855,0.691825929,0.366166239,0.792436215,0.342018493,1.059081999,0.157141024,0.558263969,593.9194139,809.8901099,791.7582418,792.1611722,724.0659341,-0.306152,0.161682,0.949585,-4.276733,-8.486176,31.67923,1,1,1,1,1,75,
53:17.9,1.927570357,0.719485274,0.03567114,0.50286552,1.227670611,0.104447383,-0.230304053,0.547708925,0.9028159,0.263437447,0.073429753,0.502188498,0.798362855,0.599410981,0.469545841,0.575291754,0.342018493,1.095268756,0.280882451,0.372633146,794.5787546,775.2380952,791.7582418,794.1758242,1072.197802,-0.277283,0.121277,0.944702,-5.473022,-9.353485,5.510406,1,1,1,1,1,75,
53:18.9,1.927570357,0.737021044,0.220351489,0.353403869,1.227670611,0.019043222,-0.098252542,0.574208193,0.9028159,0.758335366,0.379325361,0.768585558,0.798362855,0.584943623,0.516961345,0.482893159,0.342018493,1.068806044,0.336762519,0.396939132,812.3076923,771.2087912,792.967033,815.9340659,987.5824176,-0.328857,0.138,0.965637,17.854614,-9.353485,-40.853271,1,1,1,1,1,75,
53:19.9,1.927570357,0.400156872,0.162926341,0.185162809,1.227670611,-0.014713899,-0.215415026,0.210650314,0.9028159,0.758335366,0.418482023,0.644838592,0.798362855,0.472534086,0.544638039,0.564325252,0.342018493,1.07670175,0.218676919,0.070252956,852.1978022,856.6300366,790.952381,794.981685,753.4798535,-0.361755,0.132568,0.933167,16.187286,-9.99649,-32.232513,1,1,1,1,1,75,
53:20.9,1.927570357,1.287673207,-0.236209232,0.102348613,1.227670611,0.096458703,-0.207261389,0.193554057,0.9028159,0.536247004,0.442626634,0.477129418,0.798362855,0.536887228,0.422677318,0.670483122,0.342018493,1.041380871,0.113297946,0.387036655,857.8388278,898.5347985,780.0732601,804.6520147,807.0695971,-0.358215,0.099304,0.9422,1.816864,-9.78714,-5.884247,1,1,1,1,1,75,
53:21.9,1.927570357,1.58029668,0.115426574,0.451792754,1.227670611,0.538990787,-0.200034286,0.162307234,0.9028159,0.409399202,-0.195307745,0.749758759,0.798362855,0.550079101,0.43475437,0.884284647,0.342018493,1.029499499,0.15344569,0.685261244,753.4798535,788.1318681,796.1904762,805.8608059,1015.384615,-0.372864,0.140503,0.931763,-3.416901,-2.362671,31.940918,1,1,1,1,1,75,
53:22.9,1.927570357,1.171264822,0.127948083,0.378018584,1.227670611,0.358853952,-0.338186374,0.103982947,0.9028159,0.41198982,-0.23828674,0.711196971,0.798362855,0.548584755,0.37924795,0.686479783,0.342018493,0.995776741,-0.023300344,0.534491307,837.2893773,798.2051282,791.3553114,800.6227106,671.6849817,-0.337219,0.170959,0.921753,-7.798309,-2.011261,27.238007,1,1,1,1,1,75,
53:23.9,1.927570357,0.454778329,-0.381693931,0.371715659,1.227670611,0.150697634,-0.299899545,0.29132466,0.9028159,0.475744456,-0.223477226,0.725830212,0.798362855,0.527439813,0.388113233,0.478757206,0.342018493,1.01195379,0.141096951,0.27463141,793.7728938,774.8351648,805.8608059,805.8608059,670.4761905,-0.364014,0.11969,0.923218,-2.512207,-1.958923,7.955322,1,1,1,1,1,75,
53:24.9,1.927570357,0.215616471,0.002305034,0.507504909,1.227670611,0.322114729,-0.411202629,0.029720226,0.9028159,0.541542292,0.191165834,0.793891303,0.798362855,0.440362053,0.515027418,0.677835493,0.342018493,1.074716713,0.270416532,0.489727821,12.08791209,786.9230769,796.5934066,797.8021978,660,-0.368835,0.150757,0.918945,16.531219,-12.583466,-33.690491,1,1,1,1,1,75,
53:25.9,1.927570357,0.449075522,0.118411094,0.296224745,1.227670611,0.228889569,-0.24659279,0.406818333,0.9028159,0.50869825,0.445092228,0.767442613,0.798362855,0.338098059,0.554942322,0.597529332,0.342018493,1.027890121,0.154827277,0.463898175,817.1428571,789.3406593,805.8608059,792.967033,699.8901099,-0.364197,0.110657,0.933228,10.878754,-9.151611,-22.766876,1,1,1,1,1,75,
53:26.9,1.927570357,0.300842703,-0.012870011,0.502988833,1.227670611,0.033325406,-0.161625847,0.616235493,0.9028159,0.374045716,0.424439802,0.666148666,0.798362855,0.311964092,0.391099724,0.592555015,0.342018493,0.98025801,0.020587654,0.344527531,827.2161172,821.5750916,801.8315018,807.0695971,1014.981685,-0.346375,0.095398,0.942139,10.093689,-13.15918,-27.477264,1,1,1,1,1,75,
53:27.9,1.643001325,0.527143141,0.347922754,0.762246773,1.265321051,0.031274025,-0.041930962,0.601625346,1.307737669,0.4126847,0.175179536,0.595556304,0.828048194,0.527515115,0.343406179,0.780189034,0.761905713,1.009651242,0.022933791,0.408422133,751.4652015,781.6849817,785.7142857,805.8608059,675.3113553,-0.368469,0.105408,0.936035,-0.104675,-1.106567,32.269897,1,1,1,1,1,75,
53:28.9,1.898467077,0.535777309,-0.234368727,0.481997666,1.073388642,-0.079388197,-0.130730353,0.274251428,1.314576456,0.29600729,0.029740464,0.474924334,0.763532667,0.505726478,0.270690422,0.73731577,0.697766329,0.9502329,0.058988334,0.462992495,866.7032967,765.1648352,793.7728938,802.6373626,784.5054945,-0.327148,0.174438,0.932495,-5.973969,-0.104675,27.208099,1,1,1,1,1,75,
53:29.3,,,,,,,,,,,,,,,,,,,,,,,,,,,,,,,,,,,,,,/muse/elements/blink
53:29.9,2.105234679,0.504812228,0.267987467,0.475412516,0.775633369,0.032966472,0.13393506,0.090876735,0.831083563,0.285753996,0.295168278,0.353235138,0.722925668,0.492750787,0.407398647,0.654478615,0.606005676,0.879966647,0.135409764,0.450073898,798.2051282,786.1172161,799.8168498,806.6666667,700.6959707,-0.30011,0.099792,0.966492,-7.102966,-10.093689,4.403839,1,1,1,1,1,75,
53:30.9,1.367598224,0.535754141,0.343939957,0.444767162,1.299303119,0.037099576,0.060991009,0.577988705,1.119241508,0.341212341,0.239740463,0.570646,0.709272252,0.597224665,0.485614139,0.683539921,0.143598917,0.971838944,0.264773183,0.514470033,820.3663004,780.4761905,797.8021978,795.7875458,643.0769231,-0.326721,0.094788,0.951721,13.540497,-4.889832,-23.021088,1,1,1,1,1,75,
53:31.9,1.594012699,0.621581126,0.272908417,0.289977316,1.206423424,-0.29200359,-0.086570202,0.410592883,1.163081935,0.279903973,0.319624708,0.792652824,0.801850465,0.570750784,0.443958773,0.59100348,0.273524676,1.041801045,0.183812212,0.29578689,829.6336996,799.010989,788.9377289,792.1611722,681.3553114,-0.358765,0.075928,0.938293,18.063965,-11.364746,-42.206573,1,1,1,1,1,75,
53:32.9,1.822682424,0.126111716,0.197039736,0.090893225,1.054366393,-0.258845041,-0.098326171,0.297130475,1.024162336,0.12826273,0.296359821,0.824925666,0.885176723,0.527848689,0.33696947,0.606470347,0.386843938,1.038254431,0.012000919,0.394979069,836.4835165,804.2490842,786.9230769,808.6813187,728.0952381,-0.349548,0.037354,0.940613,3.925323,-8.979645,-8.52356,1,1,1,1,1,75,
53:33.9,1.548307653,0.369473922,0.186685914,0.533960886,1.484896773,0.088210933,0.196214619,0.697975259,1.218582421,0.292897434,0.305655683,0.831790177,0.767499233,0.467509609,0.103724359,0.827755895,0.215493709,0.96648776,-0.062986076,0.538809174,759.1208791,794.1758242,807.8754579,760.3296703,869.1208791,-0.337952,0.118896,0.944031,0.844879,-3.342133,25.398712,1,1,1,1,1,75,
53:34.0,,,,,,,,,,,,,,,,,,,,,,,,,,,,,,,,,,,,,,/muse/elements/blink
53:34.9,1.590873454,0.609935468,0.444953529,0.63014404,1.465285133,0.152056782,0.238495528,0.547799776,1.163207738,0.452524089,0.527559801,0.493797462,0.743612528,0.297746347,0.218648823,0.690049896,0.189747392,0.953157292,-0.033860827,0.467605063,826.4102564,792.1611722,803.040293,797.8021978,841.7216117,-0.31189,0.152222,0.94635,-3.357086,-3.992615,31.312866,1,1,1,1,1,75,
53:35.9,1.341698549,0.430066439,0.172825887,0.359395895,1.01634779,-0.165958316,-0.067981749,0.015201324,0.741743175,0.363511683,0.424292805,0.17768737,0.589118601,0.303650071,0.51439399,0.603877657,0.288539608,1.032537058,0.117936776,0.190996851,805.4578755,778.0586081,813.1135531,808.2783883,666.8498168,-0.333435,0.060059,0.923035,-9.667511,-8.284302,12.598419,1,1,1,1,1,75,
53:36.9,1.323335475,0.188037693,0.063543297,0.661692206,0.845403945,-0.031985905,-0.033363886,0.437395943,1.038864538,0.370915616,0.160990674,0.610177965,0.485674105,0.357254191,0.563119434,0.740704682,0.357960506,0.994162457,0.006679877,0.541512465,788.9377289,768.7912088,786.1172161,816.3369963,1153.589744,-0.350525,0.082153,0.944336,9.757233,-10.273132,-28.84552,1,1,1,1,1,70,
53:37.9,1.300505448,0.412821412,0.43608188,0.715186603,0.909072041,-0.105078539,0.019628549,0.755204262,1.243091778,0.196124176,0.460324171,0.943682575,0.458254892,0.561931175,0.482058605,0.671551574,0.300917983,0.880059687,0.036547924,0.519555455,855.018315,796.1904762,792.967033,800.2197802,733.7362637,-0.335876,0.056091,0.948486,19.22287,-8.35907,-42.236481,1,1,1,1,1,70,
53:38.9,1.250728565,0.290982932,0.280047393,0.555808427,1.09687035,-0.185488872,-0.150266082,0.594930492,1.222296108,0.148605114,0.434331207,0.874581108,0.488968358,0.527168686,0.329649902,0.632994123,0.340954101,0.858512574,0.063378224,0.45668174,816.7399267,809.4871795,788.9377289,806.6666667,686.5934066,-0.352234,0.068848,0.942993,2.684174,-9.921722,-13.495636,1,1,1,1,1,70,
53:39.9,0.978776176,0.223462958,0.17387632,0.54568716,0.87123407,-0.166724952,-0.102099107,0.352609459,1.484454122,0.323844062,0.147543069,0.76974343,0.912263819,0.5478907,0.146915458,0.683129831,0.6102644,0.965632035,0.168446045,0.530891229,801.4285714,783.6996337,797.8021978,778.8644689,746.2271062,-0.355957,0.166687,0.932129,-3.102875,0.306549,26.841736,1,1,1,1,1,70,
53:40.9,1.156435693,0.423372701,-0.016242696,0.727284043,0.594805714,-0.097847433,-0.0281077,0.430701637,1.299966867,0.54726199,0.286086915,1.089003886,0.747745588,0.516201436,0.270396316,0.639677312,0.287156809,1.013614315,0.020847933,0.418320846,836.4835165,775.2380952,798.2051282,806.2637363,836.4835165,-0.322754,0.170715,0.909241,-6.676788,-3.887939,28.957672,1,1,1,1,1,70,
53:41.9,1.171006627,0.300965998,-0.015501002,0.341982728,0.921375288,-0.257728827,-0.14433581,0.491724298,1.349057479,0.159029658,0.226359558,1.157690216,1.152662475,0.502891608,0.288500336,0.559177406,0.52443263,0.976717077,0.037387368,0.32404523,865.8974359,801.025641,800.6227106,791.7582418,766.3736264,-0.36499,0.16217,0.93396,-15.177917,-24.224854,-5.114136,1,1,1,1,1,70,
53:42.9,1.221646822,0.674133865,0.932388859,0.398580316,0.886841849,-0.110131302,0.32376809,0.679458388,1.179187446,0.506841541,0.188981455,0.99734002,1.164059546,0.38064766,0.38043468,0.68668232,0.527128236,0.930795233,0.10195042,0.370288958,833.6630037,792.967033,808.6813187,810.6959707,627.7655678,-0.371643,0.110901,0.943298,14.093781,-6.504822,-29.451141,1,1,1,1,1,70,
53:43.9,1.065713769,0.5950249,0.903513278,0.368284986,0.924446939,0.080823376,0.085443349,0.35507379,0.958565095,0.498335544,0.228356838,0.906780147,0.660668632,0.410528155,0.240511537,0.763156335,0.359390675,0.947157843,0.0788937,0.395768449,807.0695971,798.6080586,801.4285714,795.7875458,661.6117216,-0.385681,0.098328,0.912231,14.497528,-19.604187,-40.008392,1,1,1,1,1,70,
53:44.9,1.250554516,0.670199441,0.522893556,0.769065224,0.60610309,-0.149047994,0.174425427,0.58375845,0.695765252,0.308959916,0.159473476,0.560839943,0.472423027,0.315442534,0.21933887,0.701054939,0.249087954,0.961345543,0.152730248,0.431592194,808.2783883,791.7582418,793.3699634,794.981685,799.4139194,-0.327698,0.065002,0.943237,9.316101,-9.24881,-18.250885,1,1,1,1,1,70,
53:45.9,1.312432906,0.349171456,0.082857678,0.717917666,0.909796017,0.016156829,-0.118469084,0.510166135,0.301828415,0.239780065,0.146205727,0.794881441,0.832473754,0.362215396,0.240440786,0.912528789,0.451733298,0.974184278,0.062731645,0.559104638,807.8754579,794.981685,796.1904762,792.1611722,794.1758242,-0.327148,0.085632,0.947388,0.919647,-5.144043,20.060272,1,1,1,1,1,70,
53:46.9,1.210539888,0.040655058,-0.260233724,0.267068653,0.692568324,-0.103416391,-0.227982128,0.451505811,0.601100387,0.238292715,0.071035734,0.882996754,0.675810515,0.34791562,0.158150949,0.625066133,0.33168343,0.964654691,-0.194964243,0.544011344,824.7985348,793.3699634,783.6996337,797.3992674,768.7912088,-0.366333,0.157898,0.925354,-5.487976,-4.568329,30.520325,1,1,1,1,1,75,
53:47.9,1.215727283,-0.001702834,-0.010939251,0.470144044,0.493268363,-0.314854143,-0.096779323,0.195700983,0.753975707,0.239198946,0.042905089,0.83815976,0.534587367,0.345683449,0.26519022,0.502039266,0.333104307,0.979638829,-0.122428831,0.355312744,819.5604396,790.1465201,803.4432234,819.5604396,605.2014652,-0.333008,0.147461,0.975159,-2.631836,-5.988922,19.178009,1,1,1,1,1,75,
53:48.9,1.286580115,0.375771523,0.743890952,0.531930364,0.65397384,-0.118616479,0.01490724,0.223698834,0.700051506,0.644502532,0.242127471,0.855297905,0.497366387,0.573667298,0.297711984,0.628695478,0.476906979,0.906081731,0.108861994,0.320577038,807.4725275,787.7289377,799.8168498,805.0549451,726.8864469,-0.350708,0.074219,0.946899,11.596527,-9.002075,-31.380157,1,1,1,1,1,75,
53:49.9,1.010086394,0.202757642,0.672517834,0.358461286,0.736833396,0.097955955,0.02437535,0.316812369,0.688041699,0.669334769,0.223125909,0.601174035,0.339674092,0.570149456,0.3235176,0.414060692,0.15342757,0.949490976,0.252775999,0.362955587,832.4542125,805.0549451,799.4139194,815.5311355,673.2967033,-0.302673,0.093994,0.955505,14.953613,-8.635712,-29.421234,1,1,1,1,1,75,
53:50.9,1.010086394,-0.159823945,0.099035471,0.472184107,0.736833396,-0.033977622,-0.389901157,0.40320134,0.688041699,0.440751405,0.265671745,0.848280725,0.339674092,0.514093824,0.26530045,0.470573107,0.15342757,1.013887443,0.184053597,0.475039475,820.3663004,796.1904762,799.4139194,806.6666667,751.4652015,-0.30365,0.055359,0.954956,10.280609,-13.53302,-29.017487,1,1,1,1,1,75,
53:51.9,0.969334087,0.325180892,-0.075103226,0.318535437,0.692443052,-0.27335722,-0.279028176,0.208087966,0.638422842,0.290544817,0.201324362,0.77894353,0.408982421,0.510309574,0.246462392,0.802234703,0.117661073,0.993709973,0.072533064,0.678566852,833.6630037,785.7142857,799.010989,817.9487179,647.5091575,-0.318726,0.033508,0.963257,0.037384,-5.076752,33.64563,1,1,1,1,1,75,
53:52.9,0.969334087,0.315064101,0.544747406,0.584766352,0.692443052,-0.15858373,0.019088403,0.709510053,0.638422842,0.528035234,0.269058531,1.224367497,0.408982421,0.338189106,0.202930515,0.85370162,0.117661073,0.920815829,-0.078325496,0.748945817,1029.487179,788.9377289,796.1904762,794.981685,707.1428571,-0.335999,0.209351,0.937317,-9.846954,0.500946,41.107483,1,1,1,1,1,75,
53:53.5,,,,,,,,,,,,,,,,,,,,,,,,,,,,,,,,,,,,,,/muse/elements/blink
53:53.9,0.969334087,0.241026703,0.316401213,0.721459419,0.692443052,0.07469792,0.091617413,0.963449123,0.638422842,0.583578373,0.404407661,1.281887453,0.408982421,0.303599976,0.26520325,0.891000774,0.117661073,0.904522377,0.204370303,0.626031799,778.4615385,786.5201465,799.010989,786.5201465,830.4395604,-0.307251,0.142334,0.968323,-7.745972,-9.046936,12.64328,1,1,1,1,1,75,
53:54.9,0.969334087,0.266185102,0.321333663,-0.013733097,0.692443052,-0.033453001,-0.133037387,0.017754024,0.638422842,0.345924574,0.420550487,0.705583086,0.408982421,0.451741402,0.349189573,0.710607119,0.117661073,0.925505918,0.166598087,0.419636648,864.6886447,788.9377289,787.7289377,808.2783883,694.6520147,-0.312073,0.056274,0.951355,13.024597,-0.91217,-32.598877,1,1,1,1,1,75,
53:55.9,0.969334087,0.320137546,0.020190018,0.450215491,0.692443052,-0.159693004,-0.005864666,0.412351616,0.638422842,0.052864076,0.293519084,0.917419694,0.408982421,0.482537179,0.286791341,0.611904146,0.117661073,0.934170091,0.110566797,0.302479954,832.4542125,797.8021978,806.6666667,823.1868132,622.1245421,-0.31366,0.093811,0.951965,13.615265,-8.097382,-37.713013,1,1,1,1,1,75,
53:56.9,1.097690034,0.015067618,-0.383327181,0.427181905,0.899539711,-0.193779641,-0.289713026,0.431157709,1.228746971,0.198800311,0.142809824,0.783652567,0.864306038,0.47223029,0.176725276,0.61513316,0.506187126,0.966897525,-0.067510062,0.379657875,804.2490842,804.6520147,809.0842491,811.0989011,851.3919414,-0.334595,0.066895,0.952576,8.231964,-8.164673,-19.148102,1,1,1,1,1,75,
53:57.9,1.101625414,0.3314185,0.217953543,0.423664075,0.592944805,-0.055258231,-0.243946825,0.277562897,1.32619825,0.428575343,0.194084073,0.672644439,0.999497831,0.508303547,0.348894164,0.682053211,0.568960971,0.979916209,-0.03452731,0.629150346,817.1428571,790.5494505,798.2051282,800.6227106,674.1025641,-0.302551,0.121887,0.946106,2.83371,-4.515991,16.269531,1,1,1,1,1,70,
53:58.4,,,,,,,,,,,,,,,,,,,,,,,,,,,,,,,,,,,,,,/muse/elements/blink
53:58.9,1.251843937,0.239762073,0.618492523,0.669797816,0.288515746,-0.292898819,0.106408233,-0.121765991,1.004629504,0.39304077,0.16501272,0.423174099,0.967330054,0.535214723,0.383336865,0.654566838,0.369768006,0.933367364,0.166116244,0.68918952,819.5604396,790.1465201,797.8021978,799.010989,811.9047619,-0.317932,0.167786,0.931824,-8.463745,-5.196381,20.48645,1,1,1,1,1,70,
53:59.9,1.279188291,0.334209659,0.498109164,0.537646891,0.20013737,-0.131384417,-0.057905538,0.212949918,0.745384296,0.502007387,0.13473115,0.376869715,0.908517842,0.585727745,0.395883759,0.155617569,0.304617771,0.944755608,0.126554816,0.186112719,827.2161172,790.5494505,814.3223443,818.7545788,733.7362637,-0.361328,0.131287,0.92157,-8.441315,-1.59256,20.045319,1,1,1,1,1,70,
54:00.9,1.279188291,0.276289654,0.22482417,0.528815884,0.20013737,0.048701517,-0.057907706,0.197815542,0.745384296,0.489187321,0.244702742,0.454669996,0.908517842,0.612732617,0.470270757,0.294216409,0.304617771,0.944139866,0.17198524,0.267088894,815.9340659,780.0732601,783.6996337,796.996337,854.2124542,-0.300476,0.097778,0.937012,18.273315,-9.660034,-32.456818,1,1,1,1,1,70,
54:01.9,0.740919102,-0.099727413,0.216265981,-0.029970814,0.585915585,-0.01805337,-0.115036539,0.347574133,1.202143553,0.482409245,0.168104241,0.341064422,0.705044727,0.5076426,0.458568405,0.403986997,0.450359381,0.915354963,0.019255395,0.215473874,819.96337,816.3369963,804.2490842,816.3369963,504.8717949,-0.317932,0.100586,0.956177,15.529327,-11.297455,-27.529602,1,1,1,1,1,70,
54:02.9,0.902453075,-0.006306198,0.103896943,0.14068261,0.686358822,-0.161245271,-0.162348598,0.249972293,1.056452008,0.330873506,0.068149593,0.303642638,0.707380991,0.514373378,0.317253469,0.548794789,0.465959052,0.940556612,-0.008771745,0.307447838,806.6666667,795.7875458,801.4285714,809.0842491,661.6117216,-0.337402,0.11438,0.947266,13.166656,-11.439514,-24.822998,1,1,1,1,1,70,
54:03.9,1.064153136,0.276021532,0.098679567,0.229746122,0.742360881,-0.143130888,-0.101592678,0.190910073,0.818631573,0.332840888,0.011340364,0.6259973,0.676816646,0.452079028,0.213570533,0.808165805,0.47550986,0.959143691,0.088847285,0.477131792,822.3809524,772.014652,799.010989,825.6043956,1089.52381,-0.331787,0.132874,0.942871,-3.364563,4.022522,41.46637,1,1,1,1,1,70,
54:04.6,,,,,,,,,,,,,,,,,,,,,,,,,,,,,,,,,,,,,,/muse/elements/blink
54:04.9,1.056653934,0.439333225,0.439862135,0.325353004,0.679444438,0.062713434,0.158956762,0.321953162,0.797786634,0.362406111,0.327550556,0.814966842,0.716963738,0.462693213,0.37075136,0.92665871,0.50297163,0.963814856,0.124977571,0.638615558,801.025641,770.4029304,799.4139194,810.2930403,831.2454212,-0.329773,0.171082,0.951233,-3.544006,-5.054321,32.352142,1,1,1,1,1,70,
54:05.9,1.056653934,0.775585537,0.664586838,0.726690155,0.679444438,0.061332065,0.321379178,0.412007661,0.797786634,0.28435549,0.334505482,0.801523622,0.716963738,0.41198207,0.303561183,0.683512943,0.50297163,0.929938229,0.198285328,0.514537534,777.6556777,772.8205128,801.025641,820.3663004,726.0805861,-0.228516,0.057861,0.976257,-6.101074,0.358887,23.118286,1,1,1,1,1,70,
54:06.9,1.507617341,0.812382958,0.313131697,0.5734001,0.921107244,-0.158558879,-0.118019544,0.480246316,1.120528108,0.322292798,0.288798701,0.973009714,0.749874031,0.474572715,0.437114065,0.769455066,0.34754229,0.938127565,0.293959869,0.622398429,767.1794872,779.6703297,787.3260073,811.0989011,847.3626374,-0.24115,0.114563,0.952637,13.458252,-2.549591,-12.62085,1,1,1,1,1,70,
54:07.9,1.539599174,0.533350985,1.14450326,0.665550871,1.100248424,-0.243940883,0.507498903,0.660375217,1.037126635,0.311985748,0.68392861,1.079114563,0.77328657,0.637712136,0.604044979,0.88096338,0.350464886,0.977306176,0.27067852,0.643527291,780.0732601,784.1025641,824.7985348,841.7216117,589.8901099,-0.14209,0.169739,0.979492,4.299164,-16.381683,-19.402313,1,1,1,1,1,75,
54:07.9,,,,,,,,,,,,,,,,,,,,,,,,,,,,,,,,,,,,,,/muse/elements/blink
54:08.9,1.553899826,1.541885958,1.690747854,1.235387783,1.2524559,0.908222395,1.069419589,0.899547923,1.037126635,0.222290536,0.713571092,1.072866219,0.877580354,0.675785642,0.638430574,0.912692424,0.358440531,0.961606718,0.233222942,0.78200722,971.4652015,813.1135531,802.2344322,809.0842491,726.8864469,-0.327576,0.149658,0.952637,11.19278,-8.000183,-44.359894,1,1,1,1,1,75,
54:09.9,1.553899826,1.441725534,1.48232272,0.991163839,1.2524559,0.945139882,1.049768371,0.814950162,1.037126635,0.257065817,0.699120591,0.93987728,0.877580354,0.533088254,0.507958852,0.989235158,0.358440531,0.935549983,0.413504114,0.769587971,815.1282051,786.9230769,802.2344322,803.040293,975.0915751,-0.360596,0.127014,0.934753,5.114136,-6.796417,8.336639,1,1,1,1,1,75,
54:10.9,1.553899826,0.910897332,1.11278184,0.94546204,1.2524559,0.419348392,0.761530441,0.600393591,1.037126635,0.220690716,0.633994078,0.891310938,0.877580354,0.425784871,0.52587511,0.963133774,0.358440531,0.850771002,0.515075099,0.643120798,861.8681319,792.967033,792.5641026,791.3553114,585.8608059,-0.34491,0.122131,0.937927,4.650574,-6.445007,-1.637421,1,1,1,1,1,75,
54:11.9,1.553899826,0.572640624,1.028953239,0.993875724,1.2524559,0.169290045,0.478592938,0.590094226,1.037126635,0.209322199,0.640043484,0.92911161,0.877580354,0.580811607,0.418518369,0.69384767,0.358440531,0.900425757,0.142307728,0.414025525,773.6263736,779.2673993,817.1428571,804.2490842,707.1428571,-0.340332,0.107544,0.942871,-1.345825,-5.615082,12.276917,1,1,1,1,1,75,
54:12.7,,,,,,,,,,,,,,,,,,,,,,,,,,,,,,,,,,,,,,/muse/elements/blink
54:12.9,1.553899826,0.805540944,1.177645085,1.116025802,1.2524559,0.196210862,0.685805179,0.71860672,1.037126635,0.281902976,0.408475681,0.996763882,0.877580354,0.461870131,0.463051808,0.500142931,0.358440531,0.864115492,0.078241312,0.403843659,818.7545788,797.8021978,810.2930403,806.2637363,737.7655678,-0.296936,0.113464,0.959595,5.981445,-3.872986,-14.340515,1,1,1,1,1,75,
54:13.9,1.553899826,0.905775624,1.303051949,1.183507245,1.2524559,0.423434861,0.919422325,1.15273923,1.037126635,0.359132328,0.571162715,1.183711176,0.877580354,0.487174055,0.605266431,0.639492737,0.358440531,0.864844889,0.304833623,0.447164228,716.007326,788.5347985,833.6630037,864.2857143,716.007326,-0.343567,0.113281,0.93811,3.125305,-12.546082,21.391144,1,1,1,1,1,75,
54:14.9,1.553899826,0.836147933,1.134831543,1.275529702,1.2524559,0.393526782,0.868712623,1.024348768,1.037126635,0.534074623,0.654941774,1.16147429,0.877580354,0.557211249,0.616095748,0.96045166,0.358440531,0.967101818,0.300597475,0.762529298,804.6520147,768.7912088,796.1904762,824.3956044,780.4761905,0.018372,0.092529,1.001221,-3.379517,-21.675262,19.148102,1,1,1,1,1,75,
54:15.9,1.553899826,0.722786143,1.173437889,1.441767557,1.2524559,0.252148086,0.775320143,1.084143537,1.037126635,0.458495532,0.614107168,1.127441503,0.877580354,0.37451588,0.500767094,0.963207268,0.358440531,0.926756934,0.164767834,0.662753235,957.7655678,778.0586081,801.025641,820.3663004,698.2783883,0.050415,0.078979,1.00177,3.895416,-6.916046,-4.336548,1,1,1,1,1,75,
54:16.3,,,,,,,,,,,,,,,,,,,,,,,,,,,,,,,,,,,,,,/muse/elements/blink
54:16.8,,,,,,,,,,,,,,,,,,,,,,,,,,,,,,,,,,,,,,/muse/elements/blink
54:16.9,1.553899826,0.514052294,0.906528539,1.237931717,1.2524559,0.133064684,0.714801604,0.945377496,1.037126635,0.287986604,0.734045684,1.130097268,0.877580354,0.230156572,0.404095246,0.926569032,0.358440531,0.902794731,0.123108371,0.656539411,797.8021978,814.7252747,812.7106227,811.0989011,822.7838828,-0.185547,0.139648,0.973572,-0.194397,-2.213135,-3.499146,1,1,1,1,1,75,
54:17.9,1.553899826,0.674994809,1.244908059,1.283003369,1.2524559,0.057608591,0.695153289,1.048372927,1.037126635,0.270066929,0.763029952,1.060185128,0.877580354,0.509789867,0.56672232,0.971047725,0.358440531,0.891045611,0.269390701,0.731063736,855.018315,805.0549451,820.7692308,795.7875458,925.5311355,-0.223877,0.148987,0.971558,4.538422,-6.347809,-1.637421,1,1,1,1,1,65,
