TimeStamp,Delta_TP9,Delta_AF7,Delta_AF8,Delta_TP10,Theta_TP9,Theta_AF7,Theta_AF8,Theta_TP10,Alpha_TP9,Alpha_AF7,Alpha_AF8,Alpha_TP10,Beta_TP9,Beta_AF7,Beta_AF8,Beta_TP10,Gamma_TP9,Gamma_AF7,Gamma_AF8,Gamma_TP10,RAW_TP9,RAW_AF7,RAW_AF8,RAW_TP10,AUX_RIGHT,Accelerometer_X,Accelerometer_Y,Accelerometer_Z,Gyro_X,Gyro_Y,Gyro_Z,HeadBandOn,HSI_TP9,HSI_AF7,HSI_AF8,HSI_TP10,Battery,Elements
2019-04-24 14:13:21.172,,,,,,,,,,,,,,,,,,,,,,,,,,,,,,,,,,,,,,/muse/elements/blink
2019-04-24 14:13:21.372,0.9070197592374559,1.321610626134648,0.948667246678218,1.008398570977215,1.0744731829411,1.199208398571375,0.6122998388176674,1.247234739057139,1.385577771621615,0.9701181275524304,0.4878966645691505,1.234921463681997,0.906332557954905,0.3127771055356628,0.1778690119359919,0.8902258376993306,0.3679651904292479,-0.3236568158063626,-0.4039366765996406,0.2793409685450298,814.3223443223443,803.040293040293,805.4578754578755,819.5604395604396,1236.996336996337,-0.181152,0.082947,0.983154,5.413208,-5.630035,-0.897217,1,1,1,1,1,65.000000
2019-04-24 14:13:22.244,,,,,,,,,,,,,,,,,,,,,,,,,,,,,,,,,,,,,,/muse/elements/blink
2019-04-24 14:13:22.372,0.7475168942734366,0.7110511218027332,0.9790023238593732,1.128983497784781,1.219839807952548,0.6359341315550989,0.6584520805724768,1.50148735714682,1.377677828696823,0.5500393647700965,0.4981852127620645,1.22911458725296,0.9139250915704692,0.04842368319414415,0.05002919052008255,1.11697256694069,0.3561657317925749,-0.3661132408032055,-0.4266786569167023,0.3001612424111651,804.2490842490843,802.2344322344322,799.4139194139194,808.6813186813187,676.1172161172161,-0.183655,0.119568,1.002380,1.697235,-5.151520,-1.472931,1,1,1,1,1,65.000000
2019-04-24 14:13:23.372,0.7475168942734366,1.094350208668311,1.059533615771386,1.128983497784781,1.219839807952548,0.5605057141079098,0.6369926996771331,1.50148735714682,1.377677828696823,0.760631850780853,0.4119939851298595,1.22911458725296,0.9139250915704692,0.2061193293569638,0.2932124567090204,1.11697256694069,0.3561657317925749,-0.4592038683913173,-0.3972925082441062,0.3001612424111651,817.5457875457876,823.992673992674,797.3992673992674,802.6373626373627,629.7802197802198,-0.188416,0.072144,0.984863,4.052429,-6.564636,-1.360779,1,1,1,1,1,65.000000
2019-04-24 14:13:24.372,0.9028004500884003,1.329562184023114,1.016732130179323,0.430707440031899,0.7615175534717892,0.7353905166978936,0.6500486651169667,0.2342991905589856,0.7837230689934523,0.7818809043706231,0.4771680759131849,0.4601470453527608,0.5685109027767719,0.3035732652278358,0.3597108785151281,0.4943856517098584,-0.07730045325086153,-0.3210099588973748,-0.3895312320417861,0.07228656579062016,656.3736263736264,784.5054945054945,860.6593406593407,663.2234432234433,743.0036630036631,-0.173157,0.063843,0.983521,3.558960,-5.495453,0.493469,1,1,1,1,1,65.000000
2019-04-24 14:13:24.442,,,,,,,,,,,,,,,,,,,,,,,,,,,,,,,,,,,,,,/muse/elements/blink
2019-04-24 14:13:25.031,,,,,,,,,,,,,,,,,,,,,,,,,,,,,,,,,,,,,,/muse/elements/blink
2019-04-24 14:13:25.377,0.9048661992921083,1.032267670742443,1.402621871421385,0.351349600380277,0.6107235519287892,0.4293389723868249,1.041348205505557,-0.03916179961452478,0.6373795900566478,0.8038678719471841,0.7335486047868464,0.4205750349545508,0.5013087974791239,0.1721179624467067,0.2114491669274893,0.6418999820182529,-0.1109858272828355,-0.2711575055947623,-0.4264194133313756,-0.1583822851138177,801.025641025641,1046.813186813187,801.8315018315019,796.1904761904763,713.1868131868132,-0.185913,0.060364,0.987000,4.463654,-6.400146,-0.650482,1,1,1,1,1,70.000000
2019-04-24 14:13:25.499,,,,,,,,,,,,,,,,,,,,,,,,,,,,,,,,,,,,,,/muse/elements/blink
2019-04-24 14:13:25.966,,,,,,,,,,,,,,,,,,,,,,,,,,,,,,,,,,,,,,/muse/elements/blink
2019-04-24 14:13:26.372,0.9048661992921083,1.293797973786368,1.418709292445732,0.351349600380277,0.6107235519287892,0.6080315749342247,0.9816788550718728,-0.03916179961452478,0.6373795900566478,0.7890475723875203,0.7973441714548783,0.4205750349545508,0.5013087974791239,0.3021203745694355,0.4351282448010623,0.6418999820182529,-0.1109858272828355,-0.2022597773929628,-0.03229084440493524,-0.1583822851138177,770.8058608058608,836.8864468864469,792.5641025641025,799.0109890109891,719.6336996336996,-0.180542,0.064270,0.980896,3.947754,-4.867401,-1.480408,1,1,1,1,1,70.000000
2019-04-24 14:13:27.378,1.033177391775611,1.293797973786368,0.8624264398577589,1.329434754424201,0.8201634505673687,0.6080315749342247,0.4662362658690658,1.206012481549427,1.003904649954645,0.7890475723875203,0.5661356193063835,1.291449791620553,0.5053973949422071,0.3021203745694355,0.2468133221763349,0.6864089772582245,0.4805251921486858,-0.2022597773929628,0.08083893752921344,0.5113718180503544,802.6373626373627,830.4395604395604,794.5787545787546,809.8901098901099,642.6739926739926,-0.195923,0.069275,0.986206,3.312225,-6.205750,-1.286011,1,1,1,1,1,70.000000
2019-04-24 14:13:28.380,0.7328017180129823,1.120600005695654,0.3412869180491354,0.8718694415781716,0.7249275647309892,0.2732687058141942,-0.2245702159660139,0.3792138939101996,1.059050554702368,0.4135252478000636,0.3264316117152456,1.148760987971065,0.7615496412413506,0.2052484563023692,-0.168523748056292,0.5962535756189351,0.4283735555624461,0.2561782259800263,-0.06623234039688176,0.3802982490439381,684.5787545787546,826.007326007326,844.1391941391942,691.025641025641,1093.956043956044,-0.193420,0.073853,0.983887,4.613190,-5.854340,-1.585083,1,1,1,1,1,70.000000
2019-04-24 14:13:28.596,,,,,,,,,,,,,,,,,,,,,,,,,,,,,,,,,,,,,,/muse/elements/blink
2019-04-24 14:13:29.001,,,,,,,,,,,,,,,,,,,,,,,,,,,,,,,,,,,,,,/muse/elements/blink
2019-04-24 14:13:29.372,0.2284774084640125,1.056295054084379,1.300893965293704,0.06221868118865419,0.6079294554513359,0.3218558969939978,1.142696250501853,0.4109867188290661,0.8005894774720388,0.3684837308986345,0.4697388745152458,0.5846717298050916,0.820750531653109,0.202646444754708,0.0390386320548969,0.5072178183264672,0.4848476298346633,0.1433261877462591,-0.2013004412361244,0.4415196304389046,810.6959706959707,811.5018315018315,808.6813186813187,799.8168498168499,858.2417582417582,-0.188538,0.075439,0.987366,4.201965,-5.929108,-2.512207,1,1,1,1,1,70.000000
2019-04-24 14:13:29.686,,,,,,,,,,,,,,,,,,,,,,,,,,,,,,,,,,,,,,/muse/elements/blink
2019-04-24 14:13:29.930,,,,,,,,,,,,,,,,,,,,,,,,,,,,,,,,,,,,,,/muse/elements/blink
2019-04-24 14:13:30.372,0.2384667390746992,1.038301618499257,1.277225178985021,0.05299173578945947,0.598597223618301,1.323476468276575,1.20613662086082,0.3763783772206603,0.753434559071923,0.7987252236523262,0.8569851577552153,0.4902953973184224,0.8268503330881539,0.3486065649417515,0.3460463489531733,0.5282957418490047,0.5161756277127069,-0.006401775273034356,-0.12686827109251,0.4796377335239942,884.0293040293041,774.4322344322345,775.2380952380953,880.4029304029305,845.3479853479854,-0.194641,0.068970,0.984497,3.895416,-6.714172,-2.048645,1,1,1,1,1,70.000000
2019-04-24 14:13:30.403,,,,,,,,,,,,,,,,,,,,,,,,,,,,,,,,,,,,,,/muse/elements/blink
2019-04-24 14:13:31.206,,,,,,,,,,,,,,,,,,,,,,,,,,,,,,,,,,,,,,/muse/elements/blink
2019-04-24 14:13:31.382,0.2384667390746992,1.762332194903687,1.049605964361816,0.05299173578945947,0.598597223618301,1.359900909240277,1.059125263216733,0.3763783772206603,0.753434559071923,0.8682807976831423,0.8704922995427838,0.4902953973184224,0.8268503330881539,0.3548093880171154,0.3374699153628245,0.5282957418490047,0.5161756277127069,-0.1816416961407452,-0.1120698177048003,0.4796377335239942,797.3992673992674,804.2490842490843,799.4139194139194,789.7435897435897,622.5274725274726,-0.191467,0.068787,0.981201,4.022522,-5.704803,-2.175751,1,2,1,1,2,70.000000
2019-04-24 14:13:31.756,,,,,,,,,,,,,,,,,,,,,,,,,,,,,,,,,,,,,,/muse/elements/blink
2019-04-24 14:13:32.371,0.2384667390746992,1.191138376051029,1.119525178031701,0.05299173578945947,0.598597223618301,1.291605847499524,1.06961392202034,0.3763783772206603,0.753434559071923,0.992887935042426,0.8547313426737092,0.4902953973184224,0.8268503330881539,0.3236598970468961,0.3400195858039282,0.5282957418490047,0.5161756277127069,-0.2999936155448514,-0.1807319711152154,0.4796377335239942,882.014652014652,792.967032967033,787.7289377289378,879.1941391941392,730.9157509157509,-0.191650,0.074097,0.984924,3.843079,-5.689850,-0.919647,1,2,1,1,2,70.000000
2019-04-24 14:13:32.416,,,,,,,,,,,,,,,,,,,,,,,,,,,,,,,,,,,,,,/muse/elements/blink
2019-04-24 14:13:33.372,0.2384667390746992,0.9171697684380674,1.130547802637715,0.05299173578945947,0.598597223618301,1.199786499453979,0.8685805456273331,0.3763783772206603,0.753434559071923,0.9465369352036499,0.7731410170077975,0.4902953973184224,0.8268503330881539,0.3249122264525098,0.3101501182350002,0.5282957418490047,0.5161756277127069,-0.35935159130343,-0.3958406892087533,0.4796377335239942,675.7142857142858,844.5421245421246,812.7106227106227,667.6556776556777,1010.14652014652,-0.189087,0.071655,0.982361,4.015045,-4.261780,-2.654266,1,2,1,1,2,70.000000
2019-04-24 14:13:33.553,,,,,,,,,,,,,,,,,,,,,,,,,,,,,,,,,,,,,,/muse/elements/blink
2019-04-24 14:13:34.244,,,,,,,,,,,,,,,,,,,,,,,,,,,,,,,,,,,,,,/muse/elements/blink
2019-04-24 14:13:34.372,0.2384667390746992,1.486858430596262,1.122429734770397,0.05299173578945947,0.598597223618301,1.139751189662668,0.6091744167174311,0.3763783772206603,0.753434559071923,1.048117218873202,0.3981106439522569,0.4902953973184224,0.8268503330881539,-0.02729694831773816,0.1230181222914649,0.5282957418490047,0.5161756277127069,-0.4357828168704365,-0.5276236603607387,0.4796377335239942,831.6483516483516,796.996336996337,804.6520146520147,838.0952380952381,1125.384615384615,-0.198853,0.067993,0.985474,3.506622,-6.228180,-0.912170,1,2,1,1,2,70.000000
2019-04-24 14:13:35.238,,,,,,,,,,,,,,,,,,,,,,,,,,,,,,,,,,,,,,/muse/elements/blink
2019-04-24 14:13:35.372,0.2384667390746992,1.279109980715631,1.179528075242539,0.05299173578945947,0.598597223618301,0.9309546304647467,0.7852488335020912,0.3763783772206603,0.753434559071923,0.9614400613549382,0.5269739470451136,0.4902953973184224,0.8268503330881539,0.1424989081618606,0.1433510855296568,0.5282957418490047,0.5161756277127069,-0.01535632684919469,-0.004258403380622326,0.4796377335239942,784.1025641025641,776.8498168498169,817.948717948718,797.3992673992674,368.2783882783883,-0.190918,0.075500,0.988647,4.029999,-5.667419,-1.300964,1,2,1,1,2,70.000000
2019-04-24 14:13:36.083,,,,,,,,,,,,,,,,,,,,,,,,,,,,,,,,,,,,,,/muse/elements/blink
2019-04-24 14:13:36.372,0.2384667390746992,1.70030956636699,1.271854103106898,0.05299173578945947,0.598597223618301,1.1948629900458,0.9979275964228692,0.3763783772206603,0.753434559071923,1.084286044374162,1.046790317974252,0.4902953973184224,0.8268503330881539,0.3536940005159473,0.2857948108897524,0.5282957418490047,0.5161756277127069,-0.08576244077243288,0.04083009148544586,0.4796377335239942,809.8901098901099,799.0109890109891,800.6227106227107,810.2930402930403,782.893772893773,-0.186096,0.073547,0.988831,3.573914,-5.802002,-0.934601,1,2,1,1,2,65.000000
2019-04-24 14:13:37.135,,,,,,,,,,,,,,,,,,,,,,,,,,,,,,,,,,,,,,/muse/elements/blink
2019-04-24 14:13:37.373,0.2384667390746992,1.439357424233598,1.090875906957063,0.05299173578945947,0.598597223618301,1.256198600734191,0.8297442566832252,0.3763783772206603,0.753434559071923,1.129009245192074,0.8209968088288092,0.4902953973184224,0.8268503330881539,0.2186729364939925,0.1957525025412405,0.5282957418490047,0.5161756277127069,-0.3849158142772667,-0.2299958932263622,0.4796377335239942,815.1282051282052,869.92673992674,769.5970695970697,787.3260073260074,729.3040293040293,-0.181885,0.076416,0.987610,2.886047,-6.669312,-1.211243,1,2,1,1,2,65.000000
2019-04-24 14:13:38.043,,,,,,,,,,,,,,,,,,,,,,,,,,,,,,,,,,,,,,/muse/elements/blink
2019-04-24 14:13:38.372,0.2384667390746992,1.448541862478167,1.265187059555493,0.05299173578945947,0.598597223618301,1.24578867523877,1.156779570858446,0.3763783772206603,0.753434559071923,1.170090590716567,0.5970017385144876,0.4902953973184224,0.8268503330881539,0.3811775109125777,0.1080346966210393,0.5282957418490047,0.5161756277127069,-0.2802152447794208,-0.4364337273958872,0.4796377335239942,823.992673992674,814.7252747252747,799.0109890109891,828.021978021978,880,-0.181763,0.086609,0.988708,4.089813,-5.719757,-0.957031,1,2,1,1,2,65.000000
2019-04-24 14:13:39.269,,,,,,,,,,,,,,,,,,,,,,,,,,,,,,,,,,,,,,/muse/elements/blink
2019-04-24 14:13:39.372,0.2384667390746992,1.6145442709437,1.044002117379782,0.05299173578945947,0.598597223618301,1.183704035776288,1.009386942245181,0.3763783772206603,0.753434559071923,1.091296109822429,0.6118691440224225,0.4902953973184224,0.8268503330881539,0.3672826031486959,0.1335510093153487,0.5282957418490047,0.5161756277127069,-0.01880827127204318,-0.6198777877403487,0.4796377335239942,779.6703296703297,776.8498168498169,815.1282051282052,804.6520146520147,827.6190476190476,-0.181946,0.079956,0.983398,4.284210,-7.028198,-1.659851,1,2,1,1,2,65.000000
2019-04-24 14:13:40.244,,,,,,,,,,,,,,,,,,,,,,,,,,,,,,,,,,,,,,/muse/elements/blink
2019-04-24 14:13:40.372,0.2384667390746992,1.42029290471764,0.878091129084024,0.05299173578945947,0.598597223618301,1.178240211059483,0.7429407109173427,0.3763783772206603,0.753434559071923,1.10180656743034,0.719005314112165,0.4902953973184224,0.8268503330881539,0.3135616875184721,0.1264374889250351,0.5282957418490047,0.5161756277127069,-0.04253132555494579,-0.2995322154542052,0.4796377335239942,817.1428571428571,804.2490842490843,798.6080586080586,819.5604395604396,956.5567765567766,-0.177124,0.059204,0.981995,1.689758,-4.882355,-3.843079,1,2,1,1,2,65.000000
2019-04-24 14:13:41.372,0.7673569533510535,1.048954854305651,1.067799765437569,0.7315356546673331,0.8374201558544113,0.6612713576932238,0.68473545269491,0.6927732103836657,1.233927901209583,0.9764146035252596,0.7846706892575732,0.8988557461864188,0.7960522737655369,0.2999794156781465,-0.03033207575387053,0.6451954204869522,-0.02271770848369963,-0.007672105536450742,-0.4363541741081967,-0.04353590640991024,824.7985347985348,810.6959706959707,805.4578754578755,825.6043956043957,1093.150183150183,-0.213074,0.056946,0.982361,3.880463,-3.409424,-1.308441,1,2,1,1,2,65.000000
2019-04-24 14:13:42.061,,,,,,,,,,,,,,,,,,,,,,,,,,,,,,,,,,,,,,/muse/elements/blink
2019-04-24 14:13:42.372,0.9531320343502456,1.255326840099567,1.154645570673925,0.9302154374889082,1.107950100695406,0.8939471738886551,0.9151098381138922,0.9675770386151376,1.377795072279798,1.031331540962925,0.8202606740891641,0.9677313172140476,0.8730297651862818,0.1031671502012266,0.04791860658582774,0.6421874032771526,-0.006767611643887801,-0.4262498390086669,-0.4167914160188533,-0.005674646473248992,809.4871794871796,809.0842490842491,803.040293040293,813.5164835164835,666.4468864468864,-0.195740,0.053833,0.985107,4.456177,-8.845062,-1.809387,1,1,1,1,1,65.000000
2019-04-24 14:13:43.107,,,,,,,,,,,,,,,,,,,,,,,,,,,,,,,,,,,,,,/muse/elements/blink
2019-04-24 14:13:43.372,1.04244008266824,1.518025540539859,1.330828466481079,0.9696744392630379,1.121865117144498,1.094214026946651,1.004917360263846,1.052787598535572,1.198565312736788,1.023439186871472,0.846556830412954,0.8676719308831962,0.8998850945301023,0.1689693357335394,0.05621468034250806,0.6071940400268455,0.1896019313527246,-0.4269508516932381,-0.4224016521109221,-0.02817770154587047,838.0952380952381,801.8315018315019,803.8461538461539,847.3626373626374,812.3076923076924,-0.154968,0.076904,0.992065,3.902893,-5.704803,-0.089722,1,1,1,1,1,65.000000
2019-04-24 14:13:44.116,,,,,,,,,,,,,,,,,,,,,,,,,,,,,,,,,,,,,,/muse/elements/blink
2019-04-24 14:13:44.379,1.04244008266824,1.538235046981303,1.30635083401761,0.9696744392630379,1.121865117144498,1.136921152028425,0.9397975848338501,1.052787598535572,1.198565312736788,1.054768202436868,0.6863869152926295,0.8676719308831962,0.8998850945301023,0.1314670039306302,-0.03709504512879451,0.6071940400268455,0.1896019313527246,-0.5371132965038773,-0.3955179761809078,-0.02817770154587047,799.4139194139194,802.2344322344322,784.1025641025641,788.1318681318681,770,-0.138489,0.093872,0.985962,4.560852,-7.484283,-1.016846,1,1,1,1,1,65.000000
2019-04-24 14:13:44.454,,,,,,,,,,,,,,,,,,,,,,,,,,,,,,,,,,,,,,/muse/elements/blink
2019-04-24 14:13:45.372,1.04244008266824,1.705366116861,1.374192589121383,0.9696744392630379,1.121865117144498,1.159265867196988,1.002340008260798,1.052787598535572,1.198565312736788,1.089026830515518,0.6994171603531523,0.8676719308831962,0.8998850945301023,0.3336845560714499,0.2015497486295268,0.6071940400268455,0.1896019313527246,-0.4990879883763523,-0.4023026059175329,-0.02817770154587047,799.4139194139194,798.2051282051282,795.7875457875458,818.7545787545788,692.6373626373627,-0.124634,0.103455,0.990601,4.433746,-5.764618,-0.657959,1,2,1,1,2,65.000000
2019-04-24 14:13:45.873,,,,,,,,,,,,,,,,,,,,,,,,,,,,,,,,,,,,,,/muse/elements/blink
2019-04-24 14:13:46.384,1.04244008266824,1.583782772558359,1.112609543666755,0.9696744392630379,1.121865117144498,1.207032061837442,0.8062110121487686,1.052787598535572,1.198565312736788,1.231808737464111,0.6708377536520859,0.8676719308831962,0.8998850945301023,0.3227924637676085,0.1435609317691184,0.6071940400268455,0.1896019313527246,-0.4508361568875788,-0.3341800198893423,-0.02817770154587047,809.4871794871796,805.0549450549451,805.8608058608058,817.1428571428571,604.7985347985348,-0.133606,0.098328,0.988098,3.775787,-6.123505,-2.295380,1,2,1,1,2,65.000000
2019-04-24 14:13:47.206,,,,,,,,,,,,,,,,,,,,,,,,,,,,,,,,,,,,,,/muse/elements/blink
2019-04-24 14:13:47.376,1.04244008266824,1.301123027589052,0.9462499076865362,0.9696744392630379,1.121865117144498,1.158032706489149,0.428398385461665,1.052787598535572,1.198565312736788,1.2167014803246,0.4907027643646179,0.8676719308831962,0.8998850945301023,0.122568510487731,0.06644263539316375,0.6071940400268455,0.1896019313527246,-0.504385194578343,-0.3195902893201547,-0.02817770154587047,805.8608058608058,803.040293040293,803.4432234432235,810.6959706959707,707.948717948718,-0.136597,0.101990,0.989136,3.155212,-5.136566,-1.637421,1,2,1,1,2,65.000000
2019-04-24 14:13:48.001,,,,,,,,,,,,,,,,,,,,,,,,,,,,,,,,,,,,,,/muse/elements/blink
2019-04-24 14:13:48.372,1.04244008266824,1.206321624635025,1.001291907662267,0.9696744392630379,1.121865117144498,1.000945111558824,0.9343837264755109,1.052787598535572,1.198565312736788,0.740716569302393,0.7219337361367136,0.8676719308831962,0.8998850945301023,0.07051337468556836,0.09856322581565463,0.6071940400268455,0.1896019313527246,-0.3159162189135763,-0.3788546745770456,-0.02817770154587047,815.1282051282052,819.96336996337,792.1611721611722,807.8754578754579,732.5274725274726,-0.147461,0.087891,0.988037,3.768311,-5.450592,-1.300964,1,2,1,1,2,65.000000
2019-04-24 14:13:49.383,1.04244008266824,1.142472686324362,0.9288649156871848,0.9696744392630379,1.121865117144498,0.6828902241927532,0.9128778681479788,1.052787598535572,1.198565312736788,0.6245001425665655,0.8208352631738002,0.8676719308831962,0.8998850945301023,0.1817574202791491,0.0750892756574239,0.6071940400268455,0.1896019313527246,-0.3540934044030589,-0.3573285370525833,-0.02817770154587047,855.0183150183151,802.2344322344322,788.1318681318681,863.8827838827839,1210.805860805861,-0.135071,0.091064,0.989624,5.316010,-7.618866,-1.226196,1,2,1,1,2,65.000000
2019-04-24 14:13:49.504,,,,,,,,,,,,,,,,,,,,,,,,,,,,,,,,,,,,,,/muse/elements/blink
2019-04-24 14:13:50.371,1.04244008266824,0.9929366201302665,0.9183452082016585,0.9696744392630379,1.121865117144498,0.5903716646283036,0.770615352719197,1.052787598535572,1.198565312736788,0.4680458494004148,0.753826195324789,0.8676719308831962,0.8998850945301023,-0.002280700822566776,-0.1245967954724122,0.6071940400268455,0.1896019313527246,-0.5481413991148784,-0.5331512831475758,-0.02817770154587047,884.0293040293041,792.1611721611722,782.0879120879121,887.2527472527473,879.1941391941392,-0.145752,0.091858,0.990601,3.633728,-6.205750,-1.375732,1,2,1,1,2,65.000000
2019-04-24 14:13:50.485,,,,,,,,,,,,,,,,,,,,,,,,,,,,,,,,,,,,,,/muse/elements/blink
2019-04-24 14:13:50.716,,,,,,,,,,,,,,,,,,,,,,,,,,,,,,,,,,,,,,/muse/elements/blink
2019-04-24 14:13:51.375,1.04244008266824,1.294239698999402,1.5934833656726,0.9696744392630379,1.121865117144498,0.8183308661546115,1.037789675288899,1.052787598535572,1.198565312736788,0.5612089211865317,0.7801635698178848,0.8676719308831962,0.8998850945301023,0.1198576803219719,0.02660657700983597,0.6071940400268455,0.1896019313527246,-0.3168791817222171,-0.4452420927181692,-0.02817770154587047,800.6227106227107,805.0549450549451,805.8608058608058,809.8901098901099,708.7545787545788,-0.138733,0.091797,0.990234,4.082336,-6.086121,-0.867310,1,2,1,1,2,65.000000
2019-04-24 14:13:51.977,,,,,,,,,,,,,,,,,,,,,,,,,,,,,,,,,,,,,,/muse/elements/blink
2019-04-24 14:13:52.372,1.04244008266824,1.484456927168466,1.568614306522889,0.9696744392630379,1.121865117144498,1.154783159308595,1.023999168987846,1.052787598535572,1.198565312736788,0.9566252729810246,0.789015166598793,0.8676719308831962,0.8998850945301023,0.213305592692296,0.1026881769041754,0.6071940400268455,0.1896019313527246,-0.2787551256153382,-0.3932617400170751,-0.02817770154587047,798.6080586080586,803.040293040293,792.967032967033,810.2930402930403,783.2967032967033,-0.144897,0.088440,0.985596,3.790741,-3.895416,-1.914062,1,2,1,1,2,65.000000
2019-04-24 14:13:53.192,,,,,,,,,,,,,,,,,,,,,,,,,,,,,,,,,,,,,,/muse/elements/blink
2019-04-24 14:13:53.371,1.04244008266824,1.328593615107502,1.036842857683394,0.9696744392630379,1.121865117144498,1.099863753707991,0.480297836486516,1.052787598535572,1.198565312736788,0.7941273549671205,0.5008377892624677,0.8676719308831962,0.8998850945301023,0.07579464327843562,-0.04065319080304568,0.6071940400268455,0.1896019313527246,-0.5620791334306088,-0.622554007485576,-0.02817770154587047,805.4578754578755,792.967032967033,804.2490842490843,822.7838827838829,979.92673992674,-0.140320,0.091858,0.989807,4.560852,-5.772095,-1.166382,1,2,1,1,2,65.000000
2019-04-24 14:13:53.485,,,,,,,,,,,,,,,,,,,,,,,,,,,,,,,,,,,,,,/muse/elements/blink
2019-04-24 14:13:54.381,1.04244008266824,1.517623664364968,0.4706175022983233,0.9696744392630379,1.121865117144498,0.9942912919621252,0.1726129451223568,1.052787598535572,1.198565312736788,0.92799530353362,0.2221029855218531,0.8676719308831962,0.8998850945301023,0.09687724776779931,0.1134571978791766,0.6071940400268455,0.1896019313527246,-0.6828113399570583,-0.5306768504121222,-0.02817770154587047,562.0879120879121,695.4578754578755,870.3296703296703,618.901098901099,644.6886446886447,-0.150146,0.086670,0.990662,3.887939,-5.301056,-0.852356,1,2,1,1,2,65.000000
2019-04-24 14:13:54.618,,,,,,,,,,,,,,,,,,,,,,,,,,,,,,,,,,,,,,/muse/elements/blink
2019-04-24 14:13:55.290,,,,,,,,,,,,,,,,,,,,,,,,,,,,,,,,,,,,,,/muse/elements/blink
2019-04-24 14:13:55.372,1.04244008266824,1.900236906303492,1.428766522775259,0.9696744392630379,1.121865117144498,1.318647913712517,1.145865913227393,1.052787598535572,1.198565312736788,0.9202465066807515,0.8821457421656523,0.8676719308831962,0.8998850945301023,0.1052720951221559,0.1860913919283229,0.6071940400268455,0.1896019313527246,-0.5961155718497216,-0.4519314594276084,-0.02817770154587047,848.1684981684982,828.4249084249085,803.4432234432235,839.3040293040293,722.4542124542124,-0.145508,0.086609,0.992004,4.523468,-6.370239,-1.405640,1,2,1,1,2,65.000000
2019-04-24 14:13:56.111,,,,,,,,,,,,,,,,,,,,,,,,,,,,,,,,,,,,,,/muse/elements/blink
2019-04-24 14:13:56.372,1.04244008266824,1.900236906303492,1.377365564261943,0.9696744392630379,1.121865117144498,1.318647913712517,1.089934140463648,1.052787598535572,1.198565312736788,0.9202465066807515,0.8798434586736601,0.8676719308831962,0.8998850945301023,0.1052720951221559,0.1700709190273996,0.6071940400268455,0.1896019313527246,-0.5961155718497216,-0.4054588290404311,-0.02817770154587047,813.5164835164835,810.2930402930403,802.6373626373627,810.6959706959707,891.6849816849817,-0.157959,0.082581,0.985352,3.656158,-4.515991,-2.512207,1,2,1,1,2,65.000000
2019-04-24 14:13:56.715,,,,,,,,,,,,,,,,,,,,,,,,,,,,,,,,,,,,,,/muse/elements/blink
2019-04-24 14:13:57.384,1.04244008266824,1.721522720873991,1.316963937077815,0.9696744392630379,1.121865117144498,1.429941572103319,1.055910661238221,1.052787598535572,1.198565312736788,0.9504726557150907,0.9058792937602976,0.8676719308831962,0.8998850945301023,-0.05463198775557105,0.1210721002976725,0.6071940400268455,0.1896019313527246,-0.2035824887514683,-0.2302703083046602,-0.02817770154587047,838.4981684981685,810.6959706959707,800.2197802197802,807.4725274725275,605.2014652014652,-0.149780,0.084717,0.992188,3.611298,-5.936584,-1.480408,1,2,1,1,2,65.000000
2019-04-24 14:13:57.558,,,,,,,,,,,,,,,,,,,,,,,,,,,,,,,,,,,,,,/muse/elements/blink
2019-04-24 14:13:58.372,1.04244008266824,1.601011770991583,1.348941672173122,0.9696744392630379,1.121865117144498,1.29704805480596,1.239636542455471,1.052787598535572,1.198565312736788,1.231595803249919,1.099512893264823,0.8676719308831962,0.8998850945301023,0.1389788406820213,0.2383219721035711,0.6071940400268455,0.1896019313527246,-0.3652817785173973,-0.1046267422965987,-0.02817770154587047,800.6227106227107,792.1611721611722,787.3260073260074,799.0109890109891,886.0439560439561,-0.161682,0.085022,0.989563,3.544006,-4.239349,-2.011261,1,2,1,1,2,65.000000
2019-04-24 14:13:58.523,,,,,,,,,,,,,,,,,,,,,,,,,,,,,,,,,,,,,,/muse/elements/blink
2019-04-24 14:13:59.251,,,,,,,,,,,,,,,,,,,,,,,,,,,,,,,,,,,,,,/muse/elements/blink
2019-04-24 14:13:59.372,1.04244008266824,1.398723994379747,1.223381414074278,0.9696744392630379,1.121865117144498,1.098658531764677,1.148981274623801,1.052787598535572,1.198565312736788,1.232152468748343,1.099512893264823,0.8676719308831962,0.8998850945301023,0.2193616990544469,0.0799042361310876,0.6071940400268455,0.1896019313527246,-0.5112203260986967,-0.3439878855601204,-0.02817770154587047,812.3076923076924,803.8461538461539,803.8461538461539,823.5897435897436,721.6483516483516,-0.158691,0.082825,0.991089,3.738403,-5.301056,-1.046753,1,2,1,1,2,65.000000
2019-04-24 14:14:00.261,,,,,,,,,,,,,,,,,,,,,,,,,,,,,,,,,,,,,,/muse/elements/blink
2019-04-24 14:14:00.391,1.04244008266824,1.244815999928211,0.9872555681578684,0.9696744392630379,1.121865117144498,0.8390359806379182,0.8871117040184847,1.052787598535572,1.198565312736788,0.8983071546225754,0.608125305485112,0.8676719308831962,0.8998850945301023,0.1818528015957889,0.02751596151084975,0.6071940400268455,0.1896019313527246,-0.4525587359988464,-0.4609221047021987,-0.02817770154587047,837.2893772893773,806.6666666666667,790.952380952381,838.0952380952381,913.4432234432235,-0.151550,0.082764,0.983154,4.351501,-5.405731,0.314026,1,2,1,1,2,65.000000
2019-04-24 14:14:01.066,,,,,,,,,,,,,,,,,,,,,,,,,,,,,,,,,,,,,,/muse/elements/blink
2019-04-24 14:14:01.372,1.04244008266824,1.451107555349614,1.482050184905595,0.9696744392630379,1.121865117144498,1.044893206011376,0.9491516290697991,1.052787598535572,1.198565312736788,1.247687349981968,1.036057017778823,0.8676719308831962,0.8998850945301023,0.4384825082571598,0.4605024744301731,0.6071940400268455,0.1896019313527246,-0.2736310153714765,-0.1400961979250914,-0.02817770154587047,804.6520146520147,801.4285714285714,801.4285714285714,798.6080586080586,635.8241758241759,-0.159424,0.074890,0.990967,4.800110,-6.459961,-2.915955,1,2,1,1,2,65.000000
2019-04-24 14:14:02.393,1.04244008266824,1.35292962839101,1.250666679020636,0.9015690561610769,1.121865117144498,0.8099358125383059,0.4410826114255266,0.1530789383977997,1.198565312736788,1.240456915196617,1.020163709785339,0.4767369643990012,0.8998850945301023,0.239993604407165,0.3579441052432497,0.5093600747448579,0.1896019313527246,-0.2197934637563231,-0.02945202187369041,0.00629485788953939,789.3406593406594,801.8315018315019,800.2197802197802,807.8754578754579,884.8351648351648,-0.160156,0.087952,0.991272,7.798309,-3.476715,0.403748,1,2,1,1,2,65.000000
2019-04-24 14:14:02.727,,,,,,,,,,,,,,,,,,,,,,,,,,,,,,,,,,,,,,/muse/elements/blink
2019-04-24 14:14:03.372,0.7987386899894769,0.8297528687478354,0.7059190548727001,0.9137813820219474,0.4809771220513255,0.5498295215614092,0.5899714852316419,0.3784682999526552,0.7635666120155871,0.8085527282076447,0.7547991749423404,0.7487219158927515,0.6444790219212807,0.07525652479957121,-0.001209383566307466,0.4457987798484427,-0.07725782645873427,-0.3519779569835623,-0.52786276971237,-0.007834338150156477,809.4871794871796,816.7399267399268,800.6227106227107,803.8461538461539,699.4871794871796,-0.155884,0.086426,0.986206,3.005676,-6.287994,-1.869202,1,1,1,1,1,65.000000
2019-04-24 14:14:04.372,0.7529315365382871,1.040500080244727,0.7323414044278513,0.7022238925681119,0.9034083249750018,0.8323436673979365,0.6899760748008594,0.7261889289843438,0.8406559559420701,0.8469751293006814,0.7836579425917043,0.9171414951820923,0.5738205084440212,0.1392944786383679,0.1355776732436326,0.5157767833765328,-0.07478297659899211,-0.3298528980080505,-0.5775103691392381,0.1347686142512406,813.1135531135532,807.4725274725275,802.6373626373627,815.1282051282052,738.1684981684982,-0.140991,0.088867,0.987976,4.478607,-5.099182,-1.024323,1,1,1,1,1,65.000000
2019-04-24 14:14:05.134,,,,,,,,,,,,,,,,,,,,,,,,,,,,,,,,,,,,,,/muse/elements/blink
2019-04-24 14:14:05.372,0.6834207066604725,0.8645670821259334,0.34619594862916,0.6273007809820839,0.840091540287291,0.6382335186871585,0.2286919871918953,0.705802771004023,0.8925843736215524,0.7305146218256799,0.4440150881337663,0.9171414951820923,0.5801222826888437,-0.003339307500470627,-0.0007545662881621699,0.5132617792163936,-0.09734668076479973,-0.5016634543546254,-0.5375860545232753,0.06133490318176541,782.4908424908425,796.5934065934066,802.2344322344322,782.4908424908425,761.1355311355312,-0.143738,0.087769,0.989319,4.261780,-7.274933,-0.837402,1,1,1,1,1,65.000000
2019-04-24 14:14:06.372,1.262465369433636,1.024709496243331,0.6637386967936205,1.240024618607836,0.8202363192409972,0.5223204482713973,0.4637213964449329,1.028664773885901,0.7314720643422785,0.4254027021462409,0.4661655857516707,1.047864547463442,0.5569238490009323,0.2319861808683912,0.1030998285697711,0.4438584781771431,0.08387822438873875,-0.2036323809474996,-0.1398494621063788,0.3521002833705633,795.7875457875458,793.3699633699634,795.3846153846154,801.025641025641,738.5714285714286,-0.141052,0.093750,0.990295,3.835602,-6.048737,-2.243042,1,1,1,1,1,65.000000
2019-04-24 14:14:07.378,1.438907598316853,0.236988549628506,0.3526774113807906,1.423751927204036,1.243293627023619,0.08224325093585703,-0.0781722834065138,1.241084579233504,1.217653170797918,0.2328133535579804,0.4798088448667684,1.248301855262387,0.6566958092771519,0.1859343913275552,0.2029723844305696,0.5447950874413739,0.03354718499101388,-0.2089734920354114,-0.04725726162218767,0.291543450700438,683.7728937728938,801.8315018315019,848.1684981684982,692.2344322344322,733.7362637362637,-0.145813,0.083862,0.992493,2.758942,-4.575806,-1.899109,1,1,1,1,1,65.000000
2019-04-24 14:14:07.731,,,,,,,,,,,,,,,,,,,,,,,,,,,,,,,,,,,,,,/muse/elements/blink
2019-04-24 14:14:08.270,,,,,,,,,,,,,,,,,,,,,,,,,,,,,,,,,,,,,,/muse/elements/blink
2019-04-24 14:14:08.377,1.591381887942936,1.231329660744934,1.194956513657982,1.654029768898586,1.464172463852671,0.8813940599091259,0.8378571904098684,1.420919889473813,1.214597318035991,0.9001354254869929,0.7812311375504585,1.123531389990492,0.8102361753892058,0.115373709731238,0.25666616778237,0.6568887403255875,-0.1218210350653875,-0.4938315695024484,-0.2047331062996868,-0.02576202691247471,807.8754578754579,809.8901098901099,797.8021978021978,802.6373626373627,763.956043956044,-0.146973,0.081116,0.989075,3.880463,-4.448700,-2.878571,1,1,1,1,1,65.000000
2019-04-24 14:14:08.709,,,,,,,,,,,,,,,,,,,,,,,,,,,,,,,,,,,,,,/muse/elements/blink
2019-04-24 14:14:09.372,1.732800854164441,1.657266946797687,1.189679533526297,1.815157301355633,1.328549828127915,1.204504990634832,0.8025042863694268,1.320689808658725,1.11957520357356,0.9754263809210203,0.8028101551714198,1.047309774305625,0.833583025721807,0.2445384030168785,0.06857311860411841,0.6985736652217391,-0.3236353820028305,-0.5632484295468636,-0.4444448881283364,-0.2089166730052984,810.6959706959707,814.3223443223443,796.5934065934066,801.4285714285714,1036.336996336996,-0.146851,0.081238,0.986755,3.536530,-4.112244,-1.876678,1,1,1,1,1,65.000000
2019-04-24 14:14:09.854,,,,,,,,,,,,,,,,,,,,,,,,,,,,,,,,,,,,,,/muse/elements/blink
2019-04-24 14:14:10.383,1.732800854164441,1.470699603877744,1.577123745668778,1.815157301355633,1.328549828127915,1.103523079242497,0.8468371957558696,1.320689808658725,1.11957520357356,0.9035404047327441,0.9582859667066047,1.047309774305625,0.833583025721807,0.2365687359818914,0.02937362537472676,0.6985736652217391,-0.3236353820028305,-0.7013072518008133,-0.4046748790522,-0.2089166730052984,809.8901098901099,803.040293040293,802.6373626373627,817.5457875457876,776.8498168498169,-0.150085,0.082214,0.990967,4.157104,-6.362762,-1.151428,1,2,1,1,2,65.000000
2019-04-24 14:14:10.664,,,,,,,,,,,,,,,,,,,,,,,,,,,,,,,,,,,,,,/muse/elements/blink
2019-04-24 14:14:11.096,,,,,,,,,,,,,,,,,,,,,,,,,,,,,,,,,,,,,,/muse/elements/blink
2019-04-24 14:14:11.372,1.732800854164441,1.657276901663544,1.72361436877146,1.815157301355633,1.328549828127915,1.23839358221521,1.094660264979665,1.320689808658725,1.11957520357356,0.88325290701391,1.078196635436078,1.047309774305625,0.833583025721807,0.187045659257686,0.04557401235689264,0.6985736652217391,-0.3236353820028305,-0.634117744699788,-0.210596022591891,-0.2089166730052984,809.8901098901099,804.6520146520147,808.2783882783883,813.1135531135532,587.8754578754579,-0.154724,0.083191,0.991211,3.917847,-5.802002,-2.003784,1,2,1,1,2,65.000000
2019-04-24 14:14:12.373,1.732800854164441,1.657276901663544,1.464109393899049,1.815157301355633,1.328549828127915,1.23839358221521,0.9173374729404397,1.320689808658725,1.11957520357356,0.88325290701391,0.9708984959307163,1.047309774305625,0.833583025721807,0.187045659257686,0.05381827974073414,0.6985736652217391,-0.3236353820028305,-0.634117744699788,-0.2504827398769968,-0.2089166730052984,855.4212454212454,812.3076923076924,776.8498168498169,865.0915750915751,844.1391941391942,-0.160828,0.083008,0.995544,3.558960,-5.211334,-1.607513,1,2,1,1,2,65.000000
2019-04-24 14:14:12.527,,,,,,,,,,,,,,,,,,,,,,,,,,,,,,,,,,,,,,/muse/elements/blink
2019-04-24 14:14:13.371,1.732800854164441,1.659334005168083,1.12667876060403,1.815157301355633,1.328549828127915,1.0142754790608,1.226303188792511,1.320689808658725,1.11957520357356,0.9057427021448322,1.044453895928138,1.047309774305625,0.833583025721807,0.04161347183559983,0.05865153022432966,0.6985736652217391,-0.3236353820028305,-0.2107347191470059,-0.4067634622700956,-0.2089166730052984,792.967032967033,812.3076923076924,797.8021978021978,798.2051282051282,822.3809523809524,-0.164734,0.078064,0.986145,4.717865,-7.424469,-1.547699,1,2,1,1,2,65.000000
2019-04-24 14:14:13.703,,,,,,,,,,,,,,,,,,,,,,,,,,,,,,,,,,,,,,/muse/elements/blink
2019-04-24 14:14:14.372,1.732800854164441,1.626107433366133,1.328363469193811,1.815157301355633,1.328549828127915,1.055453268440293,1.317203468510476,1.320689808658725,1.11957520357356,0.8734446628486321,1.040811936715268,1.047309774305625,0.833583025721807,-0.06738546213425083,-0.002492778793638036,0.6985736652217391,-0.3236353820028305,-0.33324990097589,-0.6188077740565078,-0.2089166730052984,864.6886446886447,799.0109890109891,778.8644688644689,874.7619047619048,751.4652014652015,-0.163513,0.081177,0.988770,3.962708,-4.695435,-0.441132,1,2,1,1,2,65.000000
2019-04-24 14:14:14.444,,,,,,,,,,,,,,,,,,,,,,,,,,,,,,,,,,,,,,/muse/elements/blink
2019-04-24 14:14:15.113,,,,,,,,,,,,,,,,,,,,,,,,,,,,,,,,,,,,,,/muse/elements/blink
2019-04-24 14:14:15.372,1.732800854164441,0.8173516004114296,1.458925901256998,1.815157301355633,1.328549828127915,0.9203348674338226,1.266054490615846,1.320689808658725,1.11957520357356,0.4248719551998327,0.8328538800133797,1.047309774305625,0.833583025721807,0.1286948488021097,0.01609597550684435,0.6985736652217391,-0.3236353820028305,-0.2620828397724971,-0.5555438044990322,-0.2089166730052984,791.7582417582418,799.0109890109891,801.025641025641,798.6080586080586,1183.406593406593,-0.191833,0.088013,0.983032,3.611298,-8.149719,-2.796326,1,2,1,1,2,65.000000
2019-04-24 14:14:16.037,,,,,,,,,,,,,,,,,,,,,,,,,,,,,,,,,,,,,,/muse/elements/blink
2019-04-24 14:14:16.371,1.732800854164441,1.107524495810512,1.522128707742522,1.815157301355633,1.328549828127915,1.115789434876574,1.211563913953471,1.320689808658725,1.11957520357356,0.6723834337036764,1.115062326949176,1.047309774305625,0.833583025721807,0.2287997360920424,0.3278077416629959,0.6985736652217391,-0.3236353820028305,-0.4562075748282541,-0.2656362686270906,-0.2089166730052984,821.978021978022,812.3076923076924,799.0109890109891,803.8461538461539,1207.985347985348,-0.190247,0.084412,0.984314,4.216919,-6.452484,-0.949554,1,2,1,1,2,65.000000
2019-04-24 14:14:17.043,,,,,,,,,,,,,,,,,,,,,,,,,,,,,,,,,,,,,,/muse/elements/blink
2019-04-24 14:14:17.372,1.732800854164441,1.256006303152686,1.457771015804667,1.815157301355633,1.328549828127915,1.228975199639235,1.179006688248865,1.320689808658725,1.11957520357356,0.660137740901782,1.072825074287509,1.047309774305625,0.833583025721807,0.279170858289317,0.2363410157973151,0.6985736652217391,-0.3236353820028305,-0.4674304733825684,-0.2260209755912044,-0.2089166730052984,813.919413919414,813.919413919414,803.040293040293,819.1575091575091,662.8205128205128,-0.191833,0.076843,0.985474,3.708496,-4.680481,-1.757050,1,2,1,1,2,65.000000
2019-04-24 14:14:17.876,,,,,,,,,,,,,,,,,,,,,,,,,,,,,,,,,,,,,,/muse/elements/blink
2019-04-24 14:14:18.372,1.732800854164441,1.42515705166604,1.161613865399494,1.815157301355633,1.328549828127915,1.033149312925632,1.056441679296209,1.320689808658725,1.11957520357356,0.955974802538936,0.8354920502180615,1.047309774305625,0.833583025721807,0.1802165530593082,0.2364374863125653,0.6985736652217391,-0.3236353820028305,-0.5743168623743689,-0.4040176436381604,-0.2089166730052984,810.6959706959707,802.2344322344322,798.6080586080586,826.007326007326,1007.326007326007,-0.191345,0.075073,0.983276,3.401947,-5.682373,-1.480408,1,2,1,1,2,65.000000
2019-04-24 14:14:18.642,,,,,,,,,,,,,,,,,,,,,,,,,,,,,,,,,,,,,,/muse/elements/blink
2019-04-24 14:14:19.322,,,,,,,,,,,,,,,,,,,,,,,,,,,,,,,,,,,,,,/muse/elements/blink
2019-04-24 14:14:19.382,1.732800854164441,1.523304694797483,1.574812843211748,1.815157301355633,1.328549828127915,1.244839948123055,0.9419758032797946,1.320689808658725,1.11957520357356,0.9135251702582147,0.825825199232134,1.047309774305625,0.833583025721807,0.1820965959926313,0.3594478904926973,0.6985736652217391,-0.3236353820028305,-0.4181976399188237,-0.1798710447535729,-0.2089166730052984,861.0622710622711,798.6080586080586,786.5201465201466,855.8241758241759,739.7802197802198,-0.205872,0.059937,0.978821,3.327179,-4.209442,-2.848663,1,2,1,1,2,65.000000
2019-04-24 14:14:19.440,,,,,,,,,,,,,,,,,,,,,,,,,,,,,,,,,,,,,,/muse/elements/blink
2019-04-24 14:14:20.387,1.732800854164441,1.765873689460814,1.676150379179314,1.815157301355633,1.328549828127915,1.380615264910492,0.8995458681595357,1.320689808658725,1.11957520357356,0.9044306487529266,0.7999126875687227,1.047309774305625,0.833583025721807,0.1889142424185907,0.2336539912275683,0.6985736652217391,-0.3236353820028305,-0.4003261210428148,-0.4702246275247373,-0.2089166730052984,809.8901098901099,757.9120879120879,801.8315018315019,822.7838827838829,645.4945054945055,-0.196716,0.062744,0.985107,3.940277,-5.256195,-1.024323,1,2,1,1,2,65.000000
2019-04-24 14:14:20.550,,,,,,,,,,,,,,,,,,,,,,,,,,,,,,,,,,,,,,/muse/elements/blink
2019-04-24 14:14:21.373,1.732800854164441,1.630005583063175,1.13654188303868,1.815157301355633,1.328549828127915,1.196501666742606,0.9056803130257554,1.320689808658725,1.11957520357356,0.8961923566071774,0.7475571821896514,1.047309774305625,0.833583025721807,0.1336485439718786,0.03009798538158213,0.6985736652217391,-0.3236353820028305,-0.4280926580978473,-0.4422481239520432,-0.2089166730052984,757.1062271062272,790.5494505494506,811.9047619047619,765.1648351648352,878.3882783882784,-0.198547,0.059937,0.981018,3.805695,-5.278625,-1.831818,1,2,1,1,2,65.000000
2019-04-24 14:14:21.502,,,,,,,,,,,,,,,,,,,,,,,,,,,,,,,,,,,,,,/muse/elements/blink
2019-04-24 14:14:22.334,,,,,,,,,,,,,,,,,,,,,,,,,,,,,,,,,,,,,,/muse/elements/blink
2019-04-24 14:14:22.372,1.732800854164441,1.13285010779762,1.129551001614545,1.815157301355633,1.328549828127915,0.830337838825198,0.8803353900855823,1.320689808658725,1.11957520357356,0.8513081935226285,0.7692720622643231,1.047309774305625,0.833583025721807,0.134736094757495,0.0223183888665512,0.6985736652217391,-0.3236353820028305,-0.5263346754596117,-0.4454034930075101,-0.2089166730052984,864.2857142857143,806.2637362637363,798.2051282051282,849.7802197802198,855.0183150183151,-0.190186,0.066406,0.986023,3.760834,-5.772095,-1.472931,1,2,1,1,2,65.000000
2019-04-24 14:14:22.734,,,,,,,,,,,,,,,,,,,,,,,,,,,,,,,,,,,,,,/muse/elements/blink
2019-04-24 14:14:23.091,,,,,,,,,,,,,,,,,,,,,,,,,,,,,,,,,,,,,,/muse/elements/blink
2019-04-24 14:14:23.372,1.732800854164441,1.425672295125822,1.406205379675465,1.815157301355633,1.328549828127915,0.9777024410357121,1.17954883286865,1.320689808658725,1.11957520357356,0.9456929204238046,0.9001402189403279,1.047309774305625,0.833583025721807,0.2246186992329022,0.06329986197578849,0.6985736652217391,-0.3236353820028305,-0.6811431758638877,-0.3456550927157654,-0.2089166730052984,800.2197802197802,806.6666666666667,798.2051282051282,827.2161172161173,703.1135531135532,-0.199524,0.055725,0.988037,3.656158,-4.785156,-1.734619,1,2,1,1,2,65.000000
2019-04-24 14:14:23.669,,,,,,,,,,,,,,,,,,,,,,,,,,,,,,,,,,,,,,/muse/elements/blink
2019-04-24 14:14:24.322,,,,,,,,,,,,,,,,,,,,,,,,,,,,,,,,,,,,,,/muse/elements/blink
2019-04-24 14:14:24.381,1.732800854164441,1.753716646243471,1.292566924305119,1.815157301355633,1.328549828127915,1.132898428163727,1.085244899771887,1.320689808658725,1.11957520357356,0.6081891179354564,1.204786478676919,1.047309774305625,0.833583025721807,0.09112590147222503,0.1816524685122895,0.6985736652217391,-0.3236353820028305,-0.2731170094120625,-0.02738744457206259,-0.2089166730052984,828.021978021978,809.4871794871796,799.4139194139194,826.8131868131868,685.3846153846154,-0.190308,0.062378,0.983582,5.226288,-7.327271,-0.366364,1,2,1,1,2,65.000000
2019-04-24 14:14:25.386,1.732800854164441,1.595953525602137,1.429061980249414,1.815157301355633,1.328549828127915,1.336560138155654,1.137578428574065,1.320689808658725,1.11957520357356,0.9338175811410606,1.202587703084018,1.047309774305625,0.833583025721807,0.08312581679578278,0.04246342564615145,0.6985736652217391,-0.3236353820028305,-0.4631445662107443,-0.2735368734362666,-0.2089166730052984,800.6227106227107,802.6373626373627,801.025641025641,811.5018315018315,753.4798534798535,-0.201965,0.062012,0.985901,3.730927,-5.256195,-1.151428,1,2,1,1,2,65.000000
2019-04-24 14:14:25.811,,,,,,,,,,,,,,,,,,,,,,,,,,,,,,,,,,,,,,/muse/elements/blink
2019-04-24 14:14:26.372,1.732800854164441,1.175493281194139,1.083052580488795,1.815157301355633,1.328549828127915,0.9650751832534833,0.8149217216606041,1.320689808658725,1.11957520357356,0.9259974206504095,0.6248978232971144,1.047309774305625,0.833583025721807,0.08766486005771211,0.05867836796761838,0.6985736652217391,-0.3236353820028305,-0.4696230770154153,-0.5613048257926652,-0.2089166730052984,802.6373626373627,894.5054945054945,762.7472527472528,759.1208791208792,724.4688644688645,-0.194519,0.061157,0.977783,3.095398,-5.682373,-1.472931,1,2,1,1,2,65.000000
2019-04-24 14:14:26.751,,,,,,,,,,,,,,,,,,,,,,,,,,,,,,,,,,,,,,/muse/elements/blink
2019-04-24 14:14:27.089,,,,,,,,,,,,,,,,,,,,,,,,,,,,,,,,,,,,,,/muse/elements/blink
2019-04-24 14:14:27.372,1.732800854164441,1.533326308494147,1.252526488148591,1.815157301355633,1.328549828127915,1.261279430109651,0.8972776300385494,1.320689808658725,1.11957520357356,0.9267577171053707,0.7671964517838107,1.047309774305625,0.833583025721807,0.2205603444953118,0.1897413848043841,0.6985736652217391,-0.3236353820028305,-0.3408143965520238,-0.4295327541213659,-0.2089166730052984,816.3369963369963,805.8608058608058,800.2197802197802,807.4725274725275,533.8827838827839,-0.202637,0.066162,0.980957,4.194489,-6.228180,-0.919647,1,2,1,1,2,65.000000
2019-04-24 14:14:28.045,,,,,,,,,,,,,,,,,,,,,,,,,,,,,,,,,,,,,,/muse/elements/blink
2019-04-24 14:14:28.372,1.732800854164441,1.000400644734589,1.155448732912309,1.815157301355633,1.328549828127915,0.6198178899283161,0.6578192566029233,1.320689808658725,1.11957520357356,0.2007378705281856,0.7705245256763826,1.047309774305625,0.833583025721807,-0.1018689940742187,0.08895747418323088,0.6985736652217391,-0.3236353820028305,-0.4792464719363878,-0.4506861633784856,-0.2089166730052984,884.0293040293041,812.7106227106227,788.1318681318681,879.1941391941392,813.5164835164835,-0.195068,0.076782,0.985229,4.957123,-6.183319,0.448608,1,2,1,1,2,65.000000
2019-04-24 14:14:28.591,,,,,,,,,,,,,,,,,,,,,,,,,,,,,,,,,,,,,,/muse/elements/blink
2019-04-24 14:14:29.372,1.732800854164441,1.341948617882967,1.538427812475966,1.815157301355633,1.328549828127915,0.936013135098872,0.8914662299714127,1.320689808658725,1.11957520357356,0.6434126543143598,0.9116212607451194,1.047309774305625,0.833583025721807,0.1901412392080905,0.1151822557399351,0.6985736652217391,-0.3236353820028305,-0.4824145469161547,-0.3988882914963064,-0.2089166730052984,800.6227106227107,805.0549450549451,795.3846153846154,795.3846153846154,736.1538461538462,-0.170715,0.120056,0.985535,4.486084,-6.766510,2.265472,1,2,1,1,2,65.000000
2019-04-24 14:14:30.267,,,,,,,,,,,,,,,,,,,,,,,,,,,,,,,,,,,,,,/muse/elements/blink
2019-04-24 14:14:30.372,0.9892265663324354,1.280546462375448,1.018777066524564,1.03151546317277,0.4923592312892405,0.8136722330976291,0.5593062996678111,0.6104705288777733,0.9943884285171224,0.655019831197351,0.6402273779639048,1.07122426780426,0.5807273596068457,0.1870049491047772,0.04145762913369658,0.4831993917506796,-0.002996105674864746,-0.3815020635572297,-0.4363105360019785,0.06037058327599202,853.0036630036631,808.6813186813187,793.7728937728938,823.992673992674,1261.172161172161,-0.166626,0.101562,0.988525,1.525269,-5.084229,-3.663635,1,1,1,1,1,65.000000
2019-04-24 14:14:31.372,1.228760257799643,0.06723030313237403,0.9268833687659634,1.069018089995354,0.4920079977804027,0.04372925627487001,0.8091133699943134,0.2888742723580818,1.012925307756545,0.4160912468879727,0.7383437858056945,1.264958268040149,0.5476299217437599,-0.05110867249281177,-0.0938643724449067,0.7936098704216653,0.028295845125265,-0.3611622272383782,-0.4509911969355763,0.09751922418691926,799.8168498168499,803.8461538461539,799.4139194139194,802.6373626373627,1082.673992673993,-0.159180,0.079285,0.986328,3.431854,-6.086121,-1.779480,1,1,1,1,1,65.000000
2019-04-24 14:14:31.916,,,,,,,,,,,,,,,,,,,,,,,,,,,,,,,,,,,,,,/muse/elements/blink
2019-04-24 14:14:32.372,1.231246385334399,0.6404553595977417,1.066671964044929,1.065321741240829,0.622337514009408,0.3661850184970861,0.8118292766733426,0.276163533606257,0.9803964259548035,0.3615423269450651,0.70307209881943,1.26879224162569,0.6163241930571942,0.1602234677134232,-0.1649673957092978,0.8200002412934219,0.14301686069357,-0.4964217068621623,-0.6133629502947527,0.1951061145936917,805.8608058608058,802.2344322344322,808.2783882783883,817.948717948718,643.8827838827839,-0.164429,0.067200,0.984375,2.684174,-4.904785,-2.624359,1,1,1,1,1,65.000000
2019-04-24 14:14:33.018,,,,,,,,,,,,,,,,,,,,,,,,,,,,,,,,,,,,,,/muse/elements/blink
2019-04-24 14:14:33.347,,,,,,,,,,,,,,,,,,,,,,,,,,,,,,,,,,,,,,/muse/elements/blink
2019-04-24 14:14:33.371,1.115968531720066,0.8187605817986552,1.192044718992801,0.9530756535237759,0.6750215454577626,0.4166004085751235,0.9596680710212221,0.07247045265474442,0.7715455862622261,0.2635461784239251,0.8448702015919536,1.097588146900874,0.5369320088769068,0.1783683437580176,0.1480735504995357,0.6932137888950415,0.1366943700935176,-0.4812313364176548,-0.5323195327100673,0.1870846009522915,818.3516483516484,804.6520146520147,806.6666666666667,834.8717948717949,708.7545787545788,-0.173096,0.070435,0.979797,3.910370,-4.052429,-1.667328,1,1,1,1,1,65.000000
2019-04-24 14:14:34.036,,,,,,,,,,,,,,,,,,,,,,,,,,,,,,,,,,,,,,/muse/elements/blink
2019-04-24 14:14:34.372,1.115968531720066,0.833571816930828,0.9054080873221726,0.9530756535237759,0.6750215454577626,0.2012769354953498,0.670862042954077,0.07247045265474442,0.7715455862622261,0.06510738073501197,0.8969941563788848,1.097588146900874,0.5369320088769068,0.1148762030364881,0.1358225168645659,0.6932137888950415,0.1366943700935176,-0.5302323474686054,-0.4385838785771885,0.1870846009522915,819.96336996337,818.3516483516484,796.5934065934066,819.1575091575091,838.901098901099,-0.178101,0.062439,0.984924,3.992615,-5.734711,-0.957031,1,1,1,1,1,65.000000
2019-04-24 14:14:34.603,,,,,,,,,,,,,,,,,,,,,,,,,,,,,,,,,,,,,,/muse/elements/blink
2019-04-24 14:14:35.282,,,,,,,,,,,,,,,,,,,,,,,,,,,,,,,,,,,,,,/muse/elements/blink
2019-04-24 14:14:35.371,1.115968531720066,0.9175228184199056,1.436527302764009,0.9530756535237759,0.6750215454577626,0.4177433074239242,1.237001807298876,0.07247045265474442,0.7715455862622261,0.04237435664031106,0.9424440302382678,1.097588146900874,0.5369320088769068,-0.2135668920158102,0.12272424430188,0.6932137888950415,0.1366943700935176,-0.5034681866574104,-0.3675397127323274,0.1870846009522915,869.1208791208792,805.8608058608058,794.981684981685,878.3882783882784,681.3553113553114,-0.171570,0.063599,0.985474,4.538422,-6.788940,-1.099091,1,2,1,1,2,65.000000
2019-04-24 14:14:36.372,1.115968531720066,1.226599590819765,1.408323838934653,0.9530756535237759,0.6750215454577626,1.146063479869506,1.168969762025108,0.07247045265474442,0.7715455862622261,0.9798160517824646,1.024924545049392,1.097588146900874,0.5369320088769068,-0.01700818798401688,0.1598815359098704,0.6932137888950415,0.1366943700935176,-0.5581686003070773,-0.3085618915126461,0.1870846009522915,886.8498168498169,780.0732600732601,789.3406593406594,898.5347985347986,820.7692307692308,-0.177551,0.066772,0.991150,3.828125,-5.966492,-1.801910,1,2,1,1,2,65.000000
2019-04-24 14:14:36.380,,,,,,,,,,,,,,,,,,,,,,,,,,,,,,,,,,,,,,/muse/elements/blink
2019-04-24 14:14:37.378,1.115968531720066,1.427612702474963,1.368588492121624,0.9530756535237759,0.6750215454577626,0.7692057089946959,1.012817630200869,0.07247045265474442,0.7715455862622261,0.5687600221146545,0.983582258872717,1.097588146900874,0.5369320088769068,0.2279885231347354,0.2025595519983843,0.6932137888950415,0.1366943700935176,-0.5303022979979622,-0.3626629864827356,0.1870846009522915,813.1135531135532,825.6043956043957,793.7728937728938,820.7692307692308,686.996336996337,-0.179565,0.062256,0.988159,3.962708,-5.121613,-1.749573,1,2,1,1,2,65.000000
2019-04-24 14:14:38.182,,,,,,,,,,,,,,,,,,,,,,,,,,,,,,,,,,,,,,/muse/elements/blink
2019-04-24 14:14:38.372,0.5859079276622559,1.216318606816125,0.7664794285504027,0.0112705828410042,0.7944693340896215,0.5866916483393115,0.6630586016249513,1.184734591416629,1.097060627376375,0.6013234522588349,0.6796953567650404,1.414246231334872,0.9332046241051377,0.1963588509695762,0.1387219432620762,0.8495331421852362,0.002027586144930905,-0.6110739445846368,-0.4039866073694746,0.04742026199924489,811.5018315018315,802.2344322344322,803.4432234432235,828.8278388278388,946.8864468864469,-0.179199,0.062073,0.988953,3.910370,-6.377716,-0.829926,1,1,1,1,1,65.000000
2019-04-24 14:14:38.986,,,,,,,,,,,,,,,,,,,,,,,,,,,,,,,,,,,,,,/muse/elements/blink
2019-04-24 14:14:39.372,0.6127428354330914,1.206583458294017,1.30525361308071,0.0112705828410042,0.8026559942459059,0.8951723891455273,1.162692325312418,1.184734591416629,1.043406154019725,0.8702263946818648,0.9349736282721733,1.414246231334872,0.9111017056479658,0.1113985499130371,0.1692929571992074,0.8495331421852362,-0.0005277597660199629,-0.5428513495505179,-0.4068256241132051,0.04742026199924489,831.6483516483516,837.2893772893773,791.7582417582418,818.3516483516484,718.4249084249085,-0.184753,0.060242,0.985413,3.686066,-4.613190,-1.502838,1,1,1,1,1,65.000000
2019-04-24 14:14:39.647,,,,,,,,,,,,,,,,,,,,,,,,,,,,,,,,,,,,,,/muse/elements/blink
2019-04-24 14:14:40.394,0.6127428354330914,1.262511271102821,1.373385660685995,0.0112705828410042,0.8026559942459059,0.7960319848684493,1.280156767678572,1.184734591416629,1.043406154019725,0.9051602153894014,1.033560426178052,1.414246231334872,0.9111017056479658,0.126545379203668,0.1673833212522994,0.8495331421852362,-0.0005277597660199629,-0.3075694467697482,-0.3917775267864198,0.04742026199924489,882.4175824175825,793.3699633699634,781.2820512820513,873.956043956044,738.1684981684982,-0.180969,0.056946,0.984192,3.028107,-5.390778,-2.325287,1,1,1,1,1,65.000000
2019-04-24 14:14:40.471,,,,,,,,,,,,,,,,,,,,,,,,,,,,,,,,,,,,,,/muse/elements/blink
2019-04-24 14:14:41.377,0.6127428354330914,1.227400543045972,1.297483422081264,0.0112705828410042,0.8026559942459059,0.8245345240259957,1.114279902076615,1.184734591416629,1.043406154019725,0.820755074794901,0.9469176573498566,1.414246231334872,0.9111017056479658,0.05296069002572376,0.04860564464796636,0.8495331421852362,-0.0005277597660199629,-0.3608642342152073,-0.4744475434912989,0.04742026199924489,861.4652014652015,802.2344322344322,791.3553113553114,853.0036630036631,654.3589743589744,-0.189758,0.058777,0.990662,3.671112,-6.856232,-0.605621,1,2,1,1,2,65.000000
2019-04-24 14:14:41.388,,,,,,,,,,,,,,,,,,,,,,,,,,,,,,,,,,,,,,/muse/elements/blink
2019-04-24 14:14:42.372,0.6127428354330914,0.8380838235985201,1.278823950510785,0.0112705828410042,0.8026559942459059,0.6332830751046917,1.003410484646287,1.184734591416629,1.043406154019725,0.5549854995408763,0.7220528763410686,1.414246231334872,0.9111017056479658,0.006861999244809721,0.1146017037208353,0.8495331421852362,-0.0005277597660199629,-0.495828286431079,-0.4828032264146054,0.04742026199924489,809.0842490842491,807.4725274725275,803.8461538461539,812.3076923076924,1228.937728937729,-0.182251,0.060547,0.982727,4.015045,-5.734711,-2.018738,1,2,1,1,2,65.000000
2019-04-24 14:14:43.042,,,,,,,,,,,,,,,,,,,,,,,,,,,,,,,,,,,,,,/muse/elements/blink
2019-04-24 14:14:43.372,0.6127428354330914,0.6472808518473929,0.8569543527922671,0.0112705828410042,0.8026559942459059,0.3526054836625966,0.5637837076224912,1.184734591416629,1.043406154019725,0.5127980250039061,0.7868400143280802,1.414246231334872,0.9111017056479658,0.09374128576179311,0.2143973112113114,0.8495331421852362,-0.0005277597660199629,-0.5403691331533139,-0.462726973056617,0.04742026199924489,798.6080586080586,809.4871794871796,806.2637362637363,807.0695970695971,832.0512820512821,-0.175415,0.075134,0.989563,5.061798,-4.142151,-0.590668,1,2,1,1,2,65.000000
2019-04-24 14:14:44.372,0.4012270814524809,0.4015675091867202,0.7142268109423244,0.8523209373998671,0.5188987451998881,0.1143151442463538,0.2863784319370357,0.7345555889643159,1.16322627584794,0.2222717530026813,0.5079167317946248,0.6246599587542864,0.3799770931805046,-0.07072217415702822,-0.1350116644637399,0.6824446986373447,-0.04185894434581391,-0.5583481650077645,-0.5357524139837897,0.1318433637023717,799.0109890109891,806.2637362637363,802.2344322344322,799.8168498168499,726.8864468864469,-0.184021,0.094543,0.983459,5.906677,-6.968384,1.585083,1,1,1,1,1,65.000000
2019-04-24 14:14:45.372,0.5624980757982088,0.8210832316452434,0.5252335395690559,0.9432191661917024,0.5554918109963631,0.5782414434228722,0.0544867379056463,0.6602921829277211,1.176944160097305,0.519878885752302,0.3128446390173961,0.847794846195944,0.563197608565929,-0.07858681592427991,-0.06610957459399737,0.6096086529516234,0.01474962667833475,-0.5149571677369497,-0.3518954898065061,0.127406860426081,794.981684981685,799.8168498168499,791.3553113553114,800.6227106227107,1082.271062271062,-0.172729,0.109680,0.977417,3.872986,-5.420685,-0.643005,1,1,1,1,1,65.000000
2019-04-24 14:14:45.418,,,,,,,,,,,,,,,,,,,,,,,,,,,,,,,,,,,,,,/muse/elements/blink
2019-04-24 14:14:45.780,,,,,,,,,,,,,,,,,,,,,,,,,,,,,,,,,,,,,,/muse/elements/blink
2019-04-24 14:14:46.390,0.8049756312118694,1.171592659878115,1.319796300396963,1.118101054213808,0.5831050036856237,0.8533834545685062,1.162935076262388,0.7671927011601143,0.7825380988440145,0.6640706303063036,1.119901703458806,0.7600804280893234,0.6909160555092383,0.09156991537112126,-0.07739692448437803,0.4529250965084229,0.09393796845167562,-0.4669906857477912,-0.3540636204789761,-0.0582432033992804,809.4871794871796,774.8351648351648,805.4578754578755,834.4688644688645,537.5091575091575,-0.190125,0.105713,0.981079,3.783264,-5.443115,-1.353302,1,1,1,1,1,65.000000
2019-04-24 14:14:46.396,,,,,,,,,,,,,,,,,,,,,,,,,,,,,,,,,,,,,,/muse/elements/blink
2019-04-24 14:14:46.707,,,,,,,,,,,,,,,,,,,,,,,,,,,,,,,,,,,,,,/muse/elements/blink
2019-04-24 14:14:47.175,,,,,,,,,,,,,,,,,,,,,,,,,,,,,,,,,,,,,,/muse/elements/blink
2019-04-24 14:14:47.372,0.8049756312118694,1.352212872318149,1.231731503888053,1.118101054213808,0.5831050036856237,1.063797819432786,0.9330440036930074,0.7671927011601143,0.7825380988440145,0.6437345750398813,0.8765200123975658,0.7600804280893234,0.6909160555092383,0.2392284373626407,0.02161931116844025,0.4529250965084229,0.09393796845167562,-0.5175682629583399,-0.2252800970525831,-0.0582432033992804,857.8388278388279,789.3406593406594,799.0109890109891,861.4652014652015,697.4725274725275,-0.194519,0.107727,0.983765,3.768311,-4.680481,-2.557068,1,1,1,1,1,65.000000
2019-04-24 14:14:48.372,0.8049756312118694,1.267973722895927,0.999449660252419,1.118101054213808,0.5831050036856237,0.8915377885981519,0.7935942428124853,0.7671927011601143,0.7825380988440145,0.838004068453806,0.7900860408129774,0.7600804280893234,0.6909160555092383,0.3333240124209491,0.2057468661239923,0.4529250965084229,0.09393796845167562,-0.2915641448196166,-0.1583787810364417,-0.0582432033992804,764.3589743589744,791.7582417582418,801.4285714285714,765.5677655677656,860.6593406593407,-0.172668,0.105164,0.996887,4.418793,-7.334747,-1.786957,1,2,1,1,2,70.000000
2019-04-24 14:14:48.437,,,,,,,,,,,,,,,,,,,,,,,,,,,,,,,,,,,,,,/muse/elements/blink
2019-04-24 14:14:49.371,0.8049756312118694,1.411789323943759,1.161225006475484,1.118101054213808,0.5831050036856237,0.8782781424552053,0.8109501635284602,0.7671927011601143,0.7825380988440145,0.8933698047048048,0.6986257685198376,0.7600804280893234,0.6909160555092383,0.2053951363894111,0.2048124676764532,0.4529250965084229,0.09393796845167562,-0.441011749051281,-0.4266791160902869,-0.0582432033992804,798.2051282051282,806.2637362637363,799.8168498168499,806.6666666666667,967.8388278388279,-0.101746,0.152527,0.997314,4.164581,-4.254303,-3.416901,1,2,1,1,2,70.000000
2019-04-24 14:14:49.827,,,,,,,,,,,,,,,,,,,,,,,,,,,,,,,,,,,,,,/muse/elements/blink
2019-04-24 14:14:50.080,,,,,,,,,,,,,,,,,,,,,,,,,,,,,,,,,,,,,,/muse/elements/blink
2019-04-24 14:14:50.374,0.8049756312118694,0.9850455549638888,1.094814636366361,1.118101054213808,0.5831050036856237,0.841840787726742,0.9573483207756226,0.7671927011601143,0.7825380988440145,0.6255282265421749,0.8595334170387395,0.7600804280893234,0.6909160555092383,0.5583700947945158,0.2029678515550904,0.4529250965084229,0.09393796845167562,0.4348339914200878,0.1444266668430677,-0.0582432033992804,811.5018315018315,819.5604395604396,799.8168498168499,799.8168498168499,708.7545787545788,-0.457825,0.022400,0.881531,-12.815247,52.404938,0.777588,1,2,1,1,2,70.000000
2019-04-24 14:14:50.427,,,,,,,,,,,,,,,,,,,,,,,,,,,,,,,,,,,,,,/muse/elements/jaw_clench
2019-04-24 14:14:50.582,,,,,,,,,,,,,,,,,,,,,,,,,,,,,,,,,,,,,,/muse/elements/blink
2019-04-24 14:14:51.060,,,,,,,,,,,,,,,,,,,,,,,,,,,,,,,,,,,,,,/muse/elements/blink
2019-04-24 14:14:51.374,0.8049756312118694,1.441925682689605,1.129480117741964,1.118101054213808,0.5831050036856237,0.9321714582392076,0.8739653540642052,0.7671927011601143,0.7825380988440145,0.8624643118038163,0.8916977353321285,0.7600804280893234,0.6909160555092383,1.025998683539317,0.8895402852131649,0.4529250965084229,0.09393796845167562,1.213606015879049,0.9413368057995262,-0.0582432033992804,929.1575091575091,771.2087912087912,798.2051282051282,1004.505494505495,639.8534798534798,-0.984192,-0.132751,0.384644,10.325470,-37.301788,8.560944,1,2,1,1,2,70.000000
2019-04-24 14:14:51.714,,,,,,,,,,,,,,,,,,,,,,,,,,,,,,,,,,,,,,/muse/elements/blink
2019-04-24 14:14:52.371,0.8049756312118694,1.667689855205159,0.923450758432762,1.118101054213808,0.5831050036856237,0.8507537943101436,0.06290114894815788,0.7671927011601143,0.7825380988440145,0.9025836957833153,0.4621547146546734,0.7600804280893234,0.6909160555092383,0.6805966003228827,0.8101552927978252,0.4529250965084229,0.09393796845167562,0.7775896367190573,0.6698509462107134,-0.0582432033992804,820.3663003663004,809.4871794871796,784.1025641025641,818.3516483516484,580.2197802197802,0.570129,0.213196,0.821289,-1.757050,-2.841187,-8.747864,1,2,1,1,2,70.000000
2019-04-24 14:14:52.712,,,,,,,,,,,,,,,,,,,,,,,,,,,,,,,,,,,,,,/muse/elements/blink
2019-04-24 14:14:53.375,0.8049756312118694,1.398591575502336,0.9950577792678728,1.118101054213808,0.5831050036856237,0.6663764759091171,0.4891948371105833,0.7671927011601143,0.7825380988440145,0.7821407257566967,0.8267423900057362,0.7600804280893234,0.6909160555092383,0.4174729466917508,0.4475025745531141,0.4529250965084229,0.09393796845167562,-0.02702001323600835,-0.1706336593846124,-0.0582432033992804,736.5567765567765,784.9084249084249,811.9047619047619,669.2673992673992,795.3846153846154,0.482300,0.187927,0.858582,3.940277,-4.358978,2.071075,1,2,1,1,2,70.000000
2019-04-24 14:14:53.994,,,,,,,,,,,,,,,,,,,,,,,,,,,,,,,,,,,,,,/muse/elements/blink
2019-04-24 14:14:54.089,,,,,,,,,,,,,,,,,,,,,,,,,,,,,,,,,,,,,,/muse/elements/blink
2019-04-24 14:14:54.377,1.227199389672351,1.273429084129916,0.8110422556738508,1.118101054213808,0.8119840668099393,0.8669402481636715,0.5052066845421646,0.7671927011601143,0.937351565689978,0.8466518848273733,0.7788894232809787,0.7600804280893234,0.9743580897715973,0.7443867833386043,0.4094500452919673,0.4529250965084229,0.6490233017193633,0.6934749240963849,0.288494613678894,-0.0582432033992804,832.4542124542124,795.7875457875458,803.040293040293,803.4432234432235,541.5384615384615,0.423523,0.163086,0.883606,3.499146,-2.272949,-2.714081,1,1,1,1,1,70.000000
2019-04-24 14:14:55.377,1.227199389672351,1.225763494841535,0.7971681198950371,1.118101054213808,0.8119840668099393,0.97059954606205,0.4491550767232053,0.7671927011601143,0.937351565689978,0.836328301330523,0.601885015077125,0.7600804280893234,0.9743580897715973,0.2472331476238788,0.07319523968961938,0.4529250965084229,0.6490233017193633,0.1396277146676234,-0.1307004496767274,-0.0582432033992804,798.6080586080586,807.4725274725275,805.4578754578755,806.6666666666667,660.8058608058608,0.394287,0.177246,0.897705,4.508514,-4.508514,-1.570129,1,1,1,1,1,70.000000
2019-04-24 14:14:56.386,0.7563125920652309,0.1986733457342519,-0.04979316721046725,0.6787234566258891,0.3866968583829996,-0.2126593952356173,-0.05073363165264491,0.5693341941150595,1.077377131478399,0.1634144965689617,0.2466302136814862,1.32371523060101,0.6376230674213704,-0.2735298855832489,-0.09005884585768879,0.5118506531781151,0.2277810939926678,-0.4332334441714337,-0.4094693170745252,0.1087885270378686,803.8461538461539,799.8168498168499,796.5934065934066,809.0842490842491,1102.417582417582,0.225464,0.142883,0.963318,1.203766,12.351685,-2.198181,1,1,1,1,1,70.000000
2019-04-24 14:14:57.038,,,,,,,,,,,,,,,,,,,,,,,,,,,,,,,,,,,,,,/muse/elements/blink
2019-04-24 14:14:57.371,0.8700143895110131,0.337361117116793,0.05607100615343927,0.8671212185838675,0.7060621718352328,-0.1451312257843297,0.04255004378585349,0.9990121819685891,1.286573171423663,0.2491509549732002,0.3038190479046882,1.444152295254269,0.7780192299073764,-0.09112530648396359,-0.08023987320046463,0.6161682456234361,0.171184030617864,-0.6373765143881174,-0.463222834712202,0.2934835473115382,803.8461538461539,808.2783882783883,805.0549450549451,819.5604395604396,656.3736263736264,-0.020020,0.108704,0.992371,1.570129,8.306732,-3.917847,1,1,1,1,1,70.000000
2019-04-24 14:14:58.389,2.672806672062578,2.685171125854537,2.672500982419021,2.681806217503276,1.831355676306775,1.758779226769317,1.714762080486706,1.799576143245839,2.426264540903794,2.43265539266587,2.42097096400345,2.403752746891286,1.364056481499133,1.270004257725091,1.324819575811985,1.359315065070339,0.7583664827780563,0.7289658728416171,0.7278663710625206,0.8617551903868123,801.4285714285714,823.5897435897436,848.1684981684982,816.3369963369963,716.007326007326,-0.569702,-0.007812,0.828064,-1.577606,25.480957,-6.893616,1,1,1,1,1,70.000000
2019-04-24 14:14:58.886,,,,,,,,,,,,,,,,,,,,,,,,,,,,,,,,,,,,,,/muse/elements/jaw_clench
2019-04-24 14:14:59.372,3.072195276832574,3.090099460233355,3.072189377233077,3.07563403549536,2.140995446184624,2.148275716357718,2.114530378401762,2.128972376041339,2.584741601716606,2.573905020192251,2.602396438966208,2.600628800944512,1.730683436887687,1.694600601822481,1.699471330382444,1.698956695567581,1.3006008009233,1.284043898356043,1.453616320783001,1.371127643996256,851.7948717948718,803.4432234432235,803.4432234432235,836.8864468864469,892.0879120879121,-0.616333,-0.063171,0.818176,6.056213,-17.720032,0.493469,1,1,1,1,1,70.000000
2019-04-24 14:15:00.388,2.858626383632211,2.87463278870219,2.85236972682759,2.855452516039825,1.907297075421112,1.927538450330704,1.899744997989213,1.915253395565031,2.580117433955603,2.569192216894755,2.597531537478365,2.600628800944512,1.610057651183422,1.498632497553586,1.495091634106911,1.539737838437087,1.306415313260386,1.111290486433644,1.365612730848448,1.379152886243026,728.0952380952381,764.7619047619048,799.4139194139194,724.4688644688645,748.2417582417582,-0.291748,0.000183,0.954834,8.456268,-30.370789,0.216827,1,1,1,1,1,70.000000
2019-04-24 14:15:00.505,,,,,,,,,,,,,,,,,,,,,,,,,,,,,,,,,,,,,,/muse/elements/blink
2019-04-24 14:15:00.729,,,,,,,,,,,,,,,,,,,,,,,,,,,,,,,,,,,,,,/muse/elements/blink
2019-04-24 14:15:01.311,,,,,,,,,,,,,,,,,,,,,,,,,,,,,,,,,,,,,,/muse/elements/blink
2019-04-24 14:15:01.372,0.627764542656586,1.181372534780778,0.02444733679178821,0.2750729162079134,-0.05979942512931919,0.7285075867598784,0.2970561587681036,0.7104033718929961,0.4252711556664943,0.4898080267302108,0.4889029441685635,0.9214226670693386,0.962627738070971,-0.01748929824437153,0.1062550857266883,0.8077276116510204,0.7084856923987177,-0.6204334797385717,-0.1886245776304151,0.6618298329335722,840.9157509157509,817.948717948718,790.5494505494506,858.6446886446887,573.7728937728938,0.317200,0.143555,0.930481,10.796509,-30.385742,-0.695343,1,1,1,1,1,70.000000
2019-04-24 14:15:02.371,0.627764542656586,1.564026515220727,0.8748120953646003,0.2750729162079134,-0.05979942512931919,0.9768764521458337,0.3729059033576235,0.7104033718929961,0.4252711556664943,0.5522333267007624,0.4492803650777293,0.9214226670693386,0.962627738070971,0.09751783794680187,0.1723989390124264,0.8077276116510204,0.7084856923987177,-0.4282970130201166,-0.2660504763460939,0.6618298329335722,703.1135531135532,765.5677655677656,798.6080586080586,728.901098901099,750.6593406593407,0.343445,0.156555,0.914673,1.510315,14.968567,0.882263,1,1,1,1,1,70.000000
2019-04-24 14:15:02.640,,,,,,,,,,,,,,,,,,,,,,,,,,,,,,,,,,,,,,/muse/elements/blink
2019-04-24 14:15:02.843,,,,,,,,,,,,,,,,,,,,,,,,,,,,,,,,,,,,,,/muse/elements/blink
2019-04-24 14:15:03.135,,,,,,,,,,,,,,,,,,,,,,,,,,,,,,,,,,,,,,/muse/elements/blink
2019-04-24 14:15:03.372,0.627764542656586,1.484687795408128,1.1705330334404,0.2750729162079134,-0.05979942512931919,0.8612214799356753,0.4814812770289212,0.7104033718929961,0.4252711556664943,0.8837869470341044,0.4263603231145864,0.9214226670693386,0.962627738070971,0.3460967212999573,0.2342961776349799,0.8077276116510204,0.7084856923987177,-0.1137870800015252,-0.1070884830006762,0.6618298329335722,809.4871794871796,813.1135531135532,803.8461538461539,814.3223443223443,473.0402930402931,-0.072815,0.102356,1.001770,-1.854248,11.387177,-0.411224,1,2,1,1,2,70.000000
2019-04-24 14:15:04.168,,,,,,,,,,,,,,,,,,,,,,,,,,,,,,,,,,,,,,/muse/elements/blink
2019-04-24 14:15:04.372,0.9371662492883802,0.918110644209712,0.1923699010372611,0.988966584654698,0.9214382256722522,0.4141127814321405,0.01275531095687468,0.6133581266036946,1.24364412533387,0.6443970432848027,0.4498427381553254,0.887027681698924,0.8631433862899837,0.5811317854302191,0.5678656712381523,0.764877933232421,0.7938522460232555,0.3794495883155953,0.3699721154491712,0.5444862616004931,817.5457875457876,805.4578754578755,804.6520146520147,797.3992673992674,784.1025641025641,-0.553101,-0.014587,0.818665,-1.383209,17.824707,-3.701019,1,1,1,1,1,70.000000
2019-04-24 14:15:04.796,,,,,,,,,,,,,,,,,,,,,,,,,,,,,,,,,,,,,,/muse/elements/jaw_clench
2019-04-24 14:15:05.375,1.121618008052076,0.3111569417472521,-0.002378654667492432,1.133779340356537,0.8959409819136609,-0.1090140449951577,-0.3183647363466358,0.8024676245245258,1.322890326238163,0.401016649530079,0.517074693156148,1.094292517164854,1.12255469409869,0.9004508986044688,1.13100982399235,1.014214178891854,1.019923219168445,0.9011217689304418,1.213683380065992,0.9222547498990916,829.2307692307693,796.996336996337,798.2051282051282,804.2490842490843,796.1904761904763,-0.621521,-0.056274,0.804932,4.785156,-17.151794,-2.041168,1,1,1,1,1,70.000000
2019-04-24 14:15:06.023,,,,,,,,,,,,,,,,,,,,,,,,,,,,,,,,,,,,,,/muse/elements/blink
2019-04-24 14:15:06.374,0.6915442157554891,0.9592770154597362,0.9352836805045526,0.9158315250989778,0.5171847704001359,0.3034696579924797,0.499964637028511,0.5645902040493941,0.9191253959358435,0.5793788048427472,0.4348108519105967,1.037646153056931,0.9968615023136305,0.8711700429660644,0.932899903192411,1.055966759363647,0.933189962640691,0.8039547944188439,1.131951921351942,0.9873986764695275,795.7875457875458,794.1758241758242,802.6373626373627,806.2637362637363,672.4908424908425,-0.095093,0.027405,0.989868,7.790833,-44.001007,-0.418701,1,1,1,1,1,70.000000
2019-04-24 14:15:07.372,0.6333882806409078,1.168575783224261,1.130346762679989,0.9371498539691662,0.4051069173820227,0.5224835382003391,0.6439500777553272,0.6686381417103291,0.759865842500723,0.6102929385418926,0.3926095498807459,0.8242873340962962,0.7679526918656026,0.2145071541518969,0.2330959836271821,0.9969448632055529,0.7247161553195699,-0.01846806183119169,0.007813644779811776,0.8636031742526771,805.8608058608058,798.2051282051282,804.6520146520147,848.974358974359,697.8754578754579,0.503357,0.200928,0.862305,10.153503,-17.607880,-0.119629,1,1,1,1,1,70.000000
2019-04-24 14:15:07.828,,,,,,,,,,,,,,,,,,,,,,,,,,,,,,,,,,,,,,/muse/elements/blink
2019-04-24 14:15:08.372,0.4710519967698339,0.9792617045070717,0.3952590066597788,1.049811617839329,0.6377777539555081,0.579665057068024,0.3487969965044932,0.4639662216536471,0.702830851703546,0.6082989351477193,0.6732903504089656,0.7162184960746065,0.8075226181520038,0.09042251554630175,0.2381629946453373,0.6079975448745047,0.05749922894987616,-0.2726701549594082,-0.2189356086078642,0.4839236096438881,806.2637362637363,803.040293040293,795.7875457875458,805.0549450549451,1091.135531135531,0.167297,0.137634,0.972229,2.123413,20.202332,-1.742096,1,1,1,1,1,65.000000
2019-04-24 14:15:08.554,,,,,,,,,,,,,,,,,,,,,,,,,,,,,,,,,,,,,,/muse/elements/blink
2019-04-24 14:15:09.372,0.4710519967698339,0.8180550003538514,0.04552514367337581,1.049811617839329,0.6377777539555081,0.6485201231889612,0.330768917727895,0.4639662216536471,0.702830851703546,0.7176005351736133,0.7580377742381085,0.7162184960746065,0.8075226181520038,0.4237434510832391,0.3254038181147808,0.6079975448745047,0.05749922894987616,-0.05587803626604138,-0.3657799854108773,0.4839236096438881,811.9047619047619,806.2637362637363,806.6666666666667,815.5311355311355,769.5970695970697,-0.142700,0.077759,0.990906,1.031799,6.474915,-1.465454,1,1,1,1,1,65.000000
2019-04-24 14:15:10.372,0.4870532210605915,0.3618634785317003,0.2598698523834753,0.4739308052307393,0.5084271774614278,0.1838276501475137,0.1205569842465804,0.4683171507900266,1.089380310627811,0.5503740628798882,0.6236711714026159,1.02812972164939,0.7761494832454534,0.4740148570082609,0.3918422823608766,0.9943560268770794,0.4855931767840942,0.00896191262328974,0.4750623018345462,0.5229598158636878,836.0805860805862,810.6959706959707,836.0805860805862,806.6666666666667,919.8901098901099,-0.470764,0.016541,0.885376,1.315918,12.845154,-4.972076,1,1,1,1,1,65.000000
2019-04-24 14:15:11.372,0.6889694076956826,0.2643491705040441,0.5605499050053333,0.7586948611579614,0.7780946316258314,0.01039284412037225,0.0528472727482644,0.736442731557116,1.400871916156181,0.5285226200296691,0.5678684844208362,1.056750186254089,1.264025809802908,0.6818313253808712,1.0445160020636,1.138499056891253,1.194182448602309,0.8134382351074732,1.405488716393136,1.088505985093775,847.7655677655678,800.2197802197802,801.025641025641,829.2307692307693,546.3736263736264,-0.529358,0.010864,0.853271,5.129089,-17.159271,-0.747681,1,1,1,1,1,65.000000
2019-04-24 14:15:12.372,0.8740971211955105,0.6406026426695886,0.06051879173675564,1.054659250644027,0.6033435401046516,-0.06646472649304527,-0.3508026381517023,0.8762787826499274,1.032051419405743,0.4877897745020967,-0.008749421584166889,1.027413716192682,1.194157799333383,0.5426220628072381,0.9810450765460329,1.175377238519022,1.269057551281881,0.6502406790705461,1.278201745068426,1.087122912854561,828.8278388278388,795.3846153846154,803.4432234432235,824.3956043956044,682.967032967033,-0.080078,0.090576,0.995483,4.471130,-29.204407,0.568237,1,1,1,1,1,65.000000
2019-04-24 14:15:13.392,1.235639718776619,0.5183941773715445,-0.03335425887041507,1.153051162517585,0.5221032530380263,-0.1609346189672688,-0.1702703599244742,0.8342803276549936,0.8380327553794359,0.01516974241841543,-0.03935482246943296,1.011922706933482,0.8537734576560153,0.1357981617708529,0.2236338623587929,0.8884769382511827,0.6847541677960544,-0.5048273395948188,0.204643092652656,0.6144530499968668,856.2271062271062,782.0879120879121,785.7142857142858,880.4029304029305,667.6556776556777,0.321289,0.147705,0.921082,11.050720,-21.750031,-2.063599,1,1,1,1,1,65.000000
2019-04-24 14:15:13.398,,,,,,,,,,,,,,,,,,,,,,,,,,,,,,,,,,,,,,/muse/elements/blink
2019-04-24 14:15:14.381,1.45044840998626,0.8927584944380115,1.422286112107399,1.187034549914161,0.3462080739035413,0.4413456310892523,0.8594698441171801,0.230573285626288,0.4638796260315476,0.52905225844599,0.389748191712697,0.7607393001875949,0.9428815178258412,0.09760000326242844,0.1604077555933039,0.8337922164734808,0.3586212384025906,-0.3064770837449435,-0.1613180904100324,0.4388868832827426,788.1318681318681,799.0109890109891,801.8315018315019,821.5750915750916,826.4102564102565,0.329651,0.158447,0.931091,2.115936,13.914337,-0.433655,1,1,1,1,1,65.000000
2019-04-24 14:15:15.372,0.7281618018938791,0.5190406038885499,1.03699853070454,1.475056712741516,0.4039122425048312,0.05456894490301986,0.4860124036508524,0.5569306730293608,0.7946801364405499,0.4657910210522473,0.3844785178899496,0.9614316558348516,0.4793115174112574,-0.08524867118969645,0.1400307275736669,0.8272963861938423,-0.02723451683532783,-0.3436571491422719,-0.1260616632238638,0.7266627277454146,794.981684981685,805.0549450549451,810.2930402930403,794.981684981685,750.2564102564103,-0.085999,0.101746,0.984863,0.740204,11.536713,-2.198181,1,1,1,1,1,65.000000
2019-04-24 14:15:16.372,1.021858935155511,0.5464777842665078,0.1069933260233807,1.109444873330214,0.7150764143344397,-0.09036917063628973,0.02367458361807606,0.328961764830944,0.9227864800894339,0.1082021291046439,0.5822512118288905,0.945471139524754,0.753089650162825,0.1784036189325896,0.6594068747293019,0.7671695904410475,0.5432977641275277,0.31028490724662,0.4349266931788995,0.7179987105049839,811.9047619047619,837.6923076923077,845.3479853479854,780.4761904761905,922.7106227106227,-0.509888,0.045227,0.864807,1.749573,20.740662,-8.665619,1,1,1,1,1,65.000000
2019-04-24 14:15:16.516,,,,,,,,,,,,,,,,,,,,,,,,,,,,,,,,,,,,,,/muse/elements/jaw_clench
2019-04-24 14:15:17.001,,,,,,,,,,,,,,,,,,,,,,,,,,,,,,,,,,,,,,/muse/elements/jaw_clench
2019-04-24 14:15:17.169,,,,,,,,,,,,,,,,,,,,,,,,,,,,,,,,,,,,,,/muse/elements/jaw_clench
2019-04-24 14:15:17.372,1.118259599198826,0.5776405899113307,0.314565175850985,0.9419496177798322,0.6691241024900599,-0.06648087475559071,-0.004783098082909875,0.2687429248574343,0.7960741594697763,0.3416162203012244,0.5761116398253324,0.7390838069806603,1.144685029950723,0.7005097614025907,1.155949915588212,1.046670030516142,1.422152632526249,0.9680952142048425,1.381491285844167,1.458009121131933,823.1868131868132,805.0549450549451,793.7728937728938,803.4432234432235,651.1355311355312,-0.571777,0.007019,0.830017,3.925323,-13.966675,0.097198,1,1,1,1,1,65.000000
2019-04-24 14:15:18.265,,,,,,,,,,,,,,,,,,,,,,,,,,,,,,,,,,,,,,/muse/elements/blink
2019-04-24 14:15:18.373,0.8884376250946495,0.5750236001271715,0.2636079276908064,0.9746517554216602,0.7259784865867545,0.190440429970678,0.1773608643813054,0.5924703340934848,0.9371571586188552,0.4862387309830587,0.494600671388657,0.8707402928063096,1.22365910457373,0.8002304750229789,1.297221912240664,1.123519850222279,1.497709174796501,0.716298866722523,1.456991377479462,1.575825167103864,767.985347985348,815.5311355311355,787.7289377289378,771.2087912087912,860.2564102564103,-0.294312,0.033508,0.945618,10.340424,-30.505371,1.084137,1,1,1,1,1,65.000000
2019-04-24 14:15:19.371,1.225837881303624,1.196608737418914,0.5705194989721069,1.395292738634538,0.8478267460674299,0.9799058938106124,0.5302112484202376,0.8497401949988151,0.8268680358429972,0.9769639130479009,0.8218831104327277,1.072886719503716,0.8056445370444006,0.5452979967365199,0.6653264448822712,0.8243328725354511,0.9699456260683952,-0.02356306729655532,0.6742789770505803,0.9427067748082917,766.3736263736264,793.7728937728938,809.4871794871796,846.5567765567765,907.8021978021978,0.176941,0.125916,0.969788,5.951538,-25.742645,-1.704712,1,1,1,1,1,70.000000
2019-04-24 14:15:20.380,1.136173923220489,1.662206077005179,1.436218136874105,1.218240522452992,0.4345386493521978,0.800210596377078,0.3795224842398028,0.509579265582294,0.7331542718811338,0.965435662190508,0.3428317672143732,1.229459199107234,0.661599969313665,0.3388673024552069,0.3853408919735236,0.9230366243075314,0.7338920464702495,0.1660050248311668,0.07639626572947891,0.5960720406687759,826.4102564102565,958.5714285714286,1168.901098901099,799.4139194139194,737.3626373626374,0.311584,0.147095,0.935608,2.063599,10.475006,-2.003784,1,1,1,1,1,70.000000
2019-04-24 14:15:21.371,0.8892980873161549,2.068395501982248,1.778447834294227,1.014742395545126,0.4806582130832825,0.702690555242153,0.6176486373817228,0.5562767473868137,0.771721409743798,0.8828163287386271,0.09096363174818373,1.091401024602563,1.15390554069526,0.5959138656954249,0.5396389229497937,1.144658042550881,1.171931937073242,0.566063445900042,0.2979781726248589,1.069245664541451,807.0695970695971,813.5164835164835,794.1758241758242,808.2783882783883,653.1501831501831,0.026428,0.099792,0.993652,0.628052,7.222595,-1.652374,1,1,1,1,1,70.000000
2019-04-24 14:15:22.371,0.8481030943799042,0.8707858767061055,-0.1258571726497337,0.8819549583747722,0.4222938144673849,-0.5434271044785998,0.06003835891044877,0.5775232204798689,0.7505108087515022,-0.1670399285413257,0.09658639116421647,0.8096049166492415,1.120821199976399,0.8911958019726286,0.66448221733279,1.116494183181618,1.038493980485568,0.847377285094331,0.7193758250685403,0.9484366869154239,732.1245421245421,755.0915750915751,844.1391941391942,712.3809523809524,772.014652014652,-0.351196,0.022034,0.927246,0.515900,22.505188,-7.117920,1,1,1,1,1,70.000000
2019-04-24 14:15:22.614,,,,,,,,,,,,,,,,,,,,,,,,,,,,,,,,,,,,,,/muse/elements/blink
2019-04-24 14:15:22.640,,,,,,,,,,,,,,,,,,,,,,,,,,,,,,,,,,,,,,/muse/elements/jaw_clench
2019-04-24 14:15:23.378,0.3683606066417221,1.064505880814268,0.470830205305018,0.5441201688574729,-0.1702222490884966,-0.01336307647203497,0.2475767378111258,0.2963432252787459,0.62403005637451,0.3680872673086589,0.432590784153793,0.5510173400998434,1.050330679285816,1.008979411666146,0.9697099686297664,1.172333957902336,1.018768086322918,1.134070908649401,1.600733625575232,0.8457904859555793,863.8827838827839,771.2087912087912,797.8021978021978,826.4102564102565,738.974358974359,-0.591858,-0.061768,0.805359,5.226288,-12.994690,0.164490,1,1,1,1,1,70.000000
2019-04-24 14:15:24.372,0.6716220416950357,0.909707314822817,0.3768167066120475,0.5745868055801052,0.7420210321372395,0.1123195210758422,0.1622112171811561,0.7240168686567338,1.030408202375094,0.4252203621587495,0.432590784153793,0.9410665600346647,1.373005742355407,0.9764510477332513,1.174399983616656,1.170514947900614,1.213635748369785,1.110929039844267,1.641687756695,1.16697436234241,796.1904761904763,779.2673992673992,791.7582417582418,819.1575091575091,852.1978021978023,-0.425232,-0.034973,0.920227,6.071167,-34.662476,-0.874786,1,1,1,1,1,70.000000
2019-04-24 14:15:25.371,3.304345065108227,3.280439810326973,3.292533831950947,3.415235788085693,2.326756280643721,2.338960520164409,2.349671161227607,2.433165575583926,2.721812558730692,2.706976633977456,2.727601808455593,2.800037114077227,1.899262590048561,1.840661477378954,1.847670729092645,1.976726238515124,1.353566835512567,1.258012073984895,1.277730585680405,1.409516954252559,780.8791208791209,815.5311355311355,1051.245421245421,803.8461538461539,729.3040293040293,0.394043,0.120117,0.903809,8.082428,-20.149994,0.074768,1,1,1,1,1,70.000000
2019-04-24 14:15:26.375,3.01379045701489,3.219808638384573,3.441729220651938,3.208567465350586,2.014942964880737,2.267925814129726,2.502650666944207,2.222397756310242,2.651659054877229,2.690112127678236,2.7267057947301,2.79558086181491,1.628719030678605,1.802395057743004,1.985534370448927,1.784105961926814,1.131328652479018,1.24411029342765,1.381232959510709,1.234343523882246,810.6959706959707,867.1062271062272,746.2271062271062,836.0805860805862,951.7216117216118,0.276489,0.116455,0.947205,1.854248,13.054504,-1.816864,1,1,1,1,1,70.000000
2019-04-24 14:15:27.372,1.066166466715223,1.720940742421231,3.441729220651938,1.584243138519855,0.4525737210051944,0.6786331446184978,2.502650666944207,0.646039813992951,0.9187554583484299,0.7193323583748032,2.7267057947301,1.159985747497838,0.8174993096059041,0.7281618030345343,1.985534370448927,0.9627323065800153,0.6627221980415425,0.540614966842906,1.381232959510709,0.7900574980848133,799.8168498168499,810.6959706959707,798.2051282051282,803.8461538461539,708.7545787545788,-0.033081,0.034668,0.997437,2.736511,14.250793,0.747681,1,1,1,1,1,70.000000
2019-04-24 14:15:28.372,0.6930255860078616,1.281084871975038,0.9099047208269069,1.480846847258331,0.414412577840511,0.2795857595299366,0.1081007904459449,0.4899943317134882,0.7923476080362092,0.6234378209050032,0.4980402552872158,1.132656661273298,0.8011303005935874,0.5222433495856803,0.6922198191972825,0.9612423778965057,0.6951173170481711,0.4735908023017788,0.5519581394214622,0.8684455917415382,826.8131868131868,785.3113553113553,788.9377289377289,827.6190476190476,684.5787545787546,-0.459167,-0.011414,0.898987,-2.534637,24.598694,-6.579590,1,1,1,1,1,70.000000
2019-04-24 14:15:29.358,,,,,,,,,,,,,,,,,,,,,,,,,,,,,,,,,,,,,,/muse/elements/jaw_clench
2019-04-24 14:15:29.373,0.6504768099717609,0.8831597704048456,1.208296982917283,0.5337518312864188,0.3138429400696499,0.002577122693356578,0.2871213050009964,0.5631713587797833,0.7592075124102646,0.269972901037514,0.4409920022298794,0.9487182770733282,1.169269515328386,0.6648581095696101,1.094781495758329,0.94574090986704,1.139000044494767,0.8372565828166845,1.474355124013907,1.284501588297981,841.3186813186813,784.9084249084249,748.6446886446887,805.4578754578755,819.1575091575091,-0.578613,-0.089661,0.829956,6.459961,-17.749939,-2.601929,1,1,1,1,1,65.000000
2019-04-24 14:15:29.747,,,,,,,,,,,,,,,,,,,,,,,,,,,,,,,,,,,,,,/muse/elements/blink
2019-04-24 14:15:30.381,0.9143741812882776,0.3454938347036919,1.3110898954462,0.8535996756247756,0.2498489500613592,0.10983430157015,0.9206852233330385,0.6452138779713922,0.7251927273085844,0.4961590182979043,0.5565136085394643,0.4417891623168392,1.37088096047699,0.9440961706327239,1.076909400856719,1.00516615846407,1.466843807341572,1.046824808116822,1.487535685476935,1.512879218282697,823.992673992674,791.3553113553114,765.9706959706959,874.7619047619048,723.2600732600732,-0.136108,0.052979,0.999023,9.966583,-29.309082,3.686066,1,1,1,1,1,65.000000
2019-04-24 14:15:31.372,0.7885148807913986,0.6825037110266827,1.186723583449535,1.026828456393939,0.1572593205317082,-0.002147047708735992,0.9289180592967082,1.050206067815593,0.7334239762580773,0.3866208365337233,0.643324624140208,1.060358195562039,0.9831361883836257,0.6669447836037082,0.8862501541545345,0.9067025873625139,0.4469234982663561,0.6974188627104456,0.7339696542399248,0.5071028633161574,784.9084249084249,792.967032967033,758.7179487179487,836.0805860805862,1048.021978021978,0.310181,0.140320,0.929443,9.645081,-26.669769,-4.358978,1,1,1,1,1,65.000000
2019-04-24 14:15:32.384,0.6782170808794991,0.5557269123214951,0.8678468018672231,1.306405085045113,0.5027134152933954,-0.1981793742795039,0.05164893590069949,0.865008129077164,0.9323250111104633,0.08159876202760329,0.4261673944732111,1.512706837508659,0.8941757745980293,0.07126491705497752,0.2584705452434535,1.002743508132262,0.4076868217685797,-0.02686901921388244,0.1805902759724602,0.5292177141955481,791.7582417582418,794.5787545787546,774.8351648351648,832.4542124542124,731.3186813186813,0.308350,0.133179,0.931213,-0.643005,15.581665,-0.366364,1,1,1,1,1,65.000000
2019-04-24 14:15:33.372,0.6969554290679091,0.3772159898604163,0.8422175168611502,1.428826305057304,0.3117880866768724,-0.09975364151298342,0.06548330650828232,0.7368989469565143,1.028393323687762,0.3148252477278987,0.03380649076488894,1.509029088732406,0.7555762563848123,-0.0326692263070955,0.2599230122044309,1.00885905294238,0.231035229033177,-0.2080367617239529,0.1101920694842222,0.7550894117615378,804.6520146520147,822.3809523809524,778.8644688644689,777.2527472527473,836.0805860805862,-0.055298,0.046814,0.994385,-0.912170,14.333038,0.957031,1,1,1,1,1,65.000000
2019-04-24 14:15:34.262,,,,,,,,,,,,,,,,,,,,,,,,,,,,,,,,,,,,,,/muse/elements/blink
2019-04-24 14:15:34.372,0.404003329677116,0.4650946269765063,0.4964477072907896,1.063149780283612,0.5289111393935475,0.05220918442680533,0.1601787952940479,0.7865687197041989,0.9277269628074647,0.3393842557044099,0.3969184421053231,0.9235720720849917,0.711114353830945,0.1576416898178232,0.5312956969507121,0.9132776109971508,0.09714823367394944,-0.1431914361701355,0.2416010654717043,0.7022001296071925,843.3333333333334,834.0659340659341,847.3626373626374,821.978021978022,1177.765567765568,-0.456909,-0.061523,0.932983,-8.314209,21.727600,-12.927399,1,1,1,1,1,65.000000
2019-04-24 14:15:35.175,,,,,,,,,,,,,,,,,,,,,,,,,,,,,,,,,,,,,,/muse/elements/jaw_clench
2019-04-24 14:15:35.372,0.3175382255632627,0.688051356034331,1.010778591627033,0.9156562533532534,0.4982352224903709,0.4126524408708163,0.6526237335926671,0.7140510287397177,0.8604706914745855,0.3733443566980792,0.9330852470729574,0.7970067418227029,0.8314896745795617,0.8077767259937536,0.9755937863674815,0.7920660717244817,0.1785608976365782,0.8577868395435105,1.262994811296292,0.6301379804648066,803.040293040293,782.0879120879121,795.3846153846154,818.3516483516484,686.996336996337,-0.504211,-0.111328,0.894592,5.532837,-29.862366,-11.783447,1,1,1,1,1,65.000000
2019-04-24 14:15:35.866,,,,,,,,,,,,,,,,,,,,,,,,,,,,,,,,,,,,,,/muse/elements/blink
2019-04-24 14:15:36.373,0.3175382255632627,1.209204361539622,1.28488533229522,0.9156562533532534,0.4982352224903709,0.5899491401962815,0.6530338888579037,0.7140510287397177,0.8604706914745855,0.5330584198663443,0.898777856322887,0.7970067418227029,0.8314896745795617,0.9067622707148267,1.051592660847972,0.7920660717244817,0.1785608976365782,1.025018529834404,1.352547145728584,0.6301379804648066,816.7399267399268,809.4871794871796,777.6556776556777,822.7838827838829,672.0879120879121,-0.005066,-0.021118,0.978271,14.990997,-28.038025,4.583282,1,1,1,1,1,65.000000
2019-04-24 14:15:37.371,0.6889442473278604,1.096835496833732,1.339134382423433,0.5412645996856562,0.9196312143236192,0.5002433133314571,0.7030758108704901,0.9271027604655739,1.331809596137545,0.5557921991860303,0.57219819141956,1.332539318554544,0.7632928738468981,0.3573100036594259,0.7047501665254913,1.265121092048449,0.06833510920493684,0.3094860634714129,0.5960611954771945,0.2238218693253268,823.5897435897436,807.8754578754579,796.996336996337,819.96336996337,1006.117216117216,0.316101,0.190491,0.930847,6.968384,-18.946228,-0.157013,1,1,1,1,1,65.000000
2019-04-24 14:15:38.385,0.5351149269421904,-0.2143012197821738,-0.129930140991442,0.6814830971366704,0.8535714189474689,0.009525970393147532,-0.02541220791024086,0.8450802144882071,1.434603233041665,0.3991977277973053,0.5933505530884533,1.357213167135205,0.819358438887463,0.08630053945429039,0.3659452690153987,1.08258586509386,0.02341101271803677,-0.4356100980797654,-0.1290699208561735,0.3350922776723656,841.3186813186813,803.040293040293,777.2527472527473,845.7509157509157,1025.457875457875,0.313538,0.199585,0.934021,1.794434,7.775879,-0.942078,1,1,1,1,1,65.000000
2019-04-24 14:15:38.529,,,,,,,,,,,,,,,,,,,,,,,,,,,,,,,,,,,,,,/muse/elements/blink
2019-04-24 14:15:39.376,0.5696885362105436,-0.004863957363590465,0.5673594892285819,0.7656606579362569,0.8349958111097271,0.1577989477459688,0.4293412067896576,0.8216872727852045,1.027262586104162,0.2598103755474416,0.6282164461255548,0.9679843555374699,0.8915948606771953,0.3556428535809609,0.389539223687398,0.9121207787511157,0.03164710201152702,-0.1663376893934035,0.0529869437764315,0.3788680083953194,786.5201465201466,802.2344322344322,796.5934065934066,792.5641025641025,774.0293040293041,-0.009766,0.035889,1.008972,-7.626343,13.929291,0.732727,1,1,1,1,1,65.000000
2019-04-24 14:15:40.372,0.3481151483284026,0.4971873626139284,0.6726201170383176,0.6073410656217499,0.6873137105078313,0.3136187966651237,0.2302816423385752,0.8423954227536179,0.9510030008105327,0.291031205718537,0.570092092899511,0.9243491447472854,0.9806848223010345,0.249350733130199,0.540427835413953,0.8656414471917864,0.6328908355571092,0.100084230856175,0.2089496899347567,0.3882517217136852,784.5054945054945,814.7252747252747,869.1208791208792,792.1611721611722,923.1135531135532,-0.376282,-0.084595,0.929077,-3.327179,22.766876,-9.637604,1,1,1,1,1,65.000000
2019-04-24 14:15:40.557,,,,,,,,,,,,,,,,,,,,,,,,,,,,,,,,,,,,,,/muse/elements/jaw_clench
2019-04-24 14:15:41.372,0.4757484300331691,0.4048945990251119,0.8763020389623862,1.630937507453306,0.732615246591279,0.2753996879303636,0.2937832686489245,0.8472022120387032,1.026093565885289,0.2925296694970334,0.6721544226102675,1.263900935155154,1.131286474129521,0.723055843130109,1.171458129757477,1.31250242663681,1.331154035759141,0.9074320007068357,1.244864285828549,1.324988711212684,846.959706959707,807.8754578754579,778.0586080586081,834.8717948717949,801.8315018315019,-0.505859,-0.144653,0.866089,4.366455,-14.796600,-3.588867,1,1,1,1,1,65.000000
2019-04-24 14:15:41.637,,,,,,,,,,,,,,,,,,,,,,,,,,,,,,,,,,,,,,/muse/elements/blink
2019-04-24 14:15:42.376,0.7548225553159247,0.7188147302674204,0.8672094720414609,1.630937507453306,0.8432186669812219,0.3620334074050612,0.428421064348355,0.8472022120387032,0.9726973193166345,0.4172655904167191,0.6541933427081164,1.263900935155154,1.257253606642031,0.9177928781265894,1.107522515323727,1.31250242663681,1.650592168191134,1.017532911946878,1.270882132155459,1.324988711212684,800.2197802197802,800.6227106227107,789.3406593406594,823.992673992674,890.0732600732601,-0.141174,-0.058777,0.991089,9.144135,-27.701569,-1.338348,1,1,1,1,1,65.000000
2019-04-24 14:15:43.372,0.7779990144491074,0.7069167654205033,0.5336661457302888,0.5397528278317321,0.6932562429513855,0.3096646698827081,0.3179015482742357,0.5689051754902595,1.082533845989125,0.3489973966765678,0.4989479291490251,0.993089435872852,0.846318059903133,0.5894320486365903,0.6036337072550653,0.8279324565935436,0.6074376553185891,0.4641265131436942,0.7479312353607177,0.3817967413136708,804.2490842490843,803.4432234432235,811.5018315018315,802.2344322344322,821.5750915750916,0.310059,0.100586,0.944031,12.456360,-27.275391,0.299072,1,1,1,1,1,65.000000
2019-04-24 14:15:44.372,1.108162553078313,0.9029668225078785,0.3552592372626138,1.187192000748701,1.038331425379412,0.6259237256363847,0.2894880196393159,0.7421252503812119,1.327535329868966,0.6843475971601282,0.6612913875095634,1.3966081423042,0.6820552623808673,0.1696278795968051,0.4585094768083015,0.9035331400278978,0.3998595520641852,-0.2827543238754206,-0.1488636954685406,0.5714464492002661,795.7875457875458,801.025641025641,785.3113553113553,790.952380952381,918.6813186813187,0.317688,0.110352,0.939270,0.493469,14.789124,-0.762634,1,1,1,1,1,65.000000
2019-04-24 14:15:45.372,1.308639884256877,1.033856183195806,0.481550985553427,1.30294769819994,1.035210766709176,0.6787898556484463,0.2881298395843219,0.7217785327430245,1.332009290616059,0.7062464871134972,0.598186447257826,1.319564604625218,0.7309695290145449,0.2896276257559335,0.5250278071258738,1.024965185991742,0.1644336217136491,-0.3900939712481551,-0.1472537709647304,0.7505813285905134,801.8315018315019,801.8315018315019,789.3406593406594,784.1025641025641,1346.190476190476,-0.003235,0.054077,1.014648,-3.461761,9.211426,8.433838,1,1,1,1,1,65.000000
2019-04-24 14:15:46.019,,,,,,,,,,,,,,,,,,,,,,,,,,,,,,,,,,,,,,/muse/elements/blink
2019-04-24 14:15:46.371,0.7532281664036371,0.5464743705373173,0.7325888924352658,0.7287400214612842,0.4805587490532696,0.3305726639800516,0.6353075197055296,0.4827476981435838,1.168049410552259,0.3738520412460468,0.8310530362845222,1.240837578070973,0.7444547689375318,0.3024699460288811,0.6429984062737255,1.008185130771615,0.1544164716500427,0.0906903017209271,0.3915219857690091,0.7632106623282706,803.040293040293,828.4249084249085,782.4908424908425,834.4688644688645,939.6336996336996,-0.461365,-0.105957,0.878723,-2.370148,18.086395,-6.773987,1,1,1,1,1,65.000000
2019-04-24 14:15:46.644,,,,,,,,,,,,,,,,,,,,,,,,,,,,,,,,,,,,,,/muse/elements/jaw_clench
2019-04-24 14:15:46.834,,,,,,,,,,,,,,,,,,,,,,,,,,,,,,,,,,,,,,/muse/elements/jaw_clench
2019-04-24 14:15:47.086,,,,,,,,,,,,,,,,,,,,,,,,,,,,,,,,,,,,,,/muse/elements/jaw_clench
2019-04-24 14:15:47.372,0.2088014191404784,0.90085953247137,0.9915020575856351,0.8718940848669363,0.3738774626225548,0.363603884754278,0.7747708850973509,0.5436661873125145,1.134581789100006,0.3863159713687629,0.8326521540481271,1.135505483299337,0.8288349416090078,0.9538771736957503,1.046116086872261,0.8392939689368116,0.2646534288659295,0.7151787757758424,1.000879233054722,0.6861952299914331,812.3076923076924,790.1465201465202,813.5164835164835,834.8717948717949,549.1941391941392,-0.594299,-0.172241,0.809082,6.893616,-24.695892,-5.338440,1,1,1,1,1,65.000000
2019-04-24 14:15:47.397,,,,,,,,,,,,,,,,,,,,,,,,,,,,,,,,,,,,,,/muse/elements/jaw_clench
2019-04-24 14:15:48.260,,,,,,,,,,,,,,,,,,,,,,,,,,,,,,,,,,,,,,/muse/elements/blink
2019-04-24 14:15:48.372,1.395783797142564,0.7961510587392554,0.6142378894889716,1.340518505584901,0.6347755051874676,0.1690200346912576,0.134571070948834,0.7680778768783226,0.6422294025834887,0.3985877530195021,0.5232633847228484,0.9542330008420371,1.352621380515761,0.9135883244437167,1.067389239357372,1.329390041998559,1.022671148146971,0.6099820661527804,1.146812235582183,0.86872847718018,877.5824175824176,791.7582417582418,771.6117216117216,900.952380952381,1159.6336996337,-0.100220,-0.168762,0.980286,5.824432,-34.139099,-8.351593,1,1,1,1,1,65.000000
2019-04-24 14:15:48.507,,,,,,,,,,,,,,,,,,,,,,,,,,,,,,,,,,,,,,/muse/elements/blink
2019-04-24 14:15:49.386,1.537660492172505,1.107253899051792,1.089723640187089,1.38926077154337,0.7304387050221913,0.6513863511201965,0.7803231966832848,0.6738630231895909,0.3712945056055943,0.5196905192709522,0.4261783133170995,0.7149604472386953,1.352471153254106,0.4820928233562173,0.7077879934577878,1.169829455859247,0.6846970257294238,0.1132740320092231,0.5361777791426992,0.8091436070626137,794.1758241758242,796.5934065934066,802.6373626373627,787.3260073260074,856.6300366300367,0.382935,0.161987,0.915466,15.162964,-19.910736,3.282318,1,1,1,1,1,65.000000
2019-04-24 14:15:50.380,1.110248442407533,1.120575700775253,0.7059600056255434,0.5417374164347961,0.8416351491860969,0.7354041547713441,0.3980877497239869,0.6067250060290872,1.341825800802314,0.5479511157743241,0.2203719664022133,1.013184287030473,0.7738268820517769,0.3713588074767982,0.4585336043964662,0.9118191960889204,0.3351881973502457,0.2218264169255058,0.03544507437391602,0.4117102756357419,791.3553113553114,804.6520146520147,798.2051282051282,797.3992673992674,541.5384615384615,0.329712,0.163513,0.926025,1.839294,14.198456,-1.465454,1,1,1,1,1,65.000000
2019-04-24 14:15:51.371,0.5410014033388877,0.37185370466925,-0.2019849819789492,0.548682925070578,0.734940073660563,-0.01497879482559842,0.2285350365947901,0.5646138714043067,1.274495904637333,0.3860062475183363,0.5460412157117435,1.138594220085735,0.7372562040462703,-0.04205699049334784,0.2844323469293589,1.049012314515775,0.1372266215907292,-0.2206583436870738,-0.06515382266378907,0.4187129731651286,798.6080586080586,809.0842490842491,804.2490842490843,796.1904761904763,591.9047619047619,-0.029907,0.078430,0.990845,0.680389,11.656342,-2.557068,1,1,1,1,1,65.000000
2019-04-24 14:15:52.372,0.5930883494170275,0.2979924335613039,-0.2498315466574963,0.305657374429144,0.6067489890805919,0.1236202458759535,0.09078879818205317,0.4250788475836226,1.010213427257646,0.2773640301498018,0.4884128316874856,1.204939210721048,0.8996881043411256,0.1283500652712953,0.5356272975862112,0.9264043827139624,0.545108338233969,-0.2140686854569428,0.3205350617877888,0.5714414979676813,815.5311355311355,830.8424908424909,838.901098901099,800.6227106227107,793.3699633699634,-0.485229,-0.013977,0.871399,-0.747681,21.398621,-4.336548,1,1,1,1,1,65.000000
2019-04-24 14:15:53.376,0.5467751681793533,0.3411268329414908,0.4258570532216915,0.5559434968386309,0.5599108986023111,0.1393741703242381,-0.1151368918483006,0.3658703856532834,0.8784982338326354,0.3378653234698665,0.2695609736128782,0.995991919033462,1.323514802339217,0.7072990052461704,0.8918377359677933,1.038215436134997,0.9982077515393966,0.4579476158228068,1.259398064986672,0.8993507390257363,853.8095238095239,803.040293040293,817.5457875457876,865.4945054945056,1091.941391941392,-0.671387,-0.042297,0.755798,8.224487,-19.992981,-1.203766,1,1,1,1,1,65.000000
2019-04-24 14:15:54.375,0.9841133841550814,0.5922033233738319,0.318542490277372,0.9786937051321585,0.4216178618805846,0.2360970353155582,-0.1834696115922202,0.5392719247187496,0.9262069776485701,0.4072651191725625,0.4187906494294484,1.063062019416516,1.446231093481783,0.8332810302772815,1.070927672147487,1.108210863655876,1.180689905080212,0.6376635157314553,1.45471920871894,1.244761449041863,779.2673992673992,807.8754578754579,816.7399267399268,806.6666666666667,855.4212454212454,-0.236816,0.010864,0.980530,9.323578,-38.505554,-1.704712,1,1,1,1,1,65.000000
2019-04-24 14:15:55.383,1.200269356512136,1.183384694689445,0.5192613232163986,1.256338440564547,0.6418394234418914,0.7177669179647197,0.2307227865697111,0.7817773470893029,1.358541635561082,1.136647326465417,0.5790439234313529,1.212704768114147,1.097864662126896,0.417969709478157,0.7156735486209795,0.8478310403109859,0.7802890602405255,0.02224866978180023,0.3869440133958144,0.8548301507757654,791.7582417582418,790.952380952381,804.6520146520147,824.7985347985348,752.2710622710623,0.406982,0.148682,0.908875,8.695526,-23.806152,-2.093506,1,1,1,1,1,65.000000
2019-04-24 14:15:56.387,1.240017430895827,1.334547971186538,0.6350614404488796,1.363506714341931,0.9821184764354853,0.8638276613060831,0.313782594923352,1.078677372697579,1.40458094044143,1.132891608450893,0.494341885522434,1.211840646600998,0.9678114840129064,0.4413542057486053,0.2855849043621481,0.8518589171878864,0.4494028884324182,-0.2603177332142242,-0.0836268487952409,0.6955274821152797,797.3992673992674,797.3992673992674,795.3846153846154,799.0109890109891,778.0586080586081,0.424866,0.136353,0.888977,5.158997,3.648682,2.699127,1,1,1,1,1,65.000000
2019-04-24 14:15:57.292,,,,,,,,,,,,,,,,,,,,,,,,,,,,,,,,,,,,,,/muse/elements/blink
2019-04-24 14:15:57.372,1.048313606824801,1.338856132347248,0.5770787761822376,0.9845612230111466,0.6400434121516256,0.7655851099935876,0.2907688308122482,0.8732972677899463,1.132969258857426,0.9098873833476794,0.7218896835525498,0.9967315320445,0.923676140344516,0.3103782569699077,0.4091316160353798,0.9519079821980169,0.3154467675089095,-0.3844999288532193,0.1808671827065651,0.7420446741559681,788.5347985347986,819.5604395604396,801.025641025641,803.4432234432235,736.959706959707,0.271667,0.224365,0.911621,8.463745,-15.604095,-8.448792,1,1,1,1,1,65.000000
2019-04-24 14:15:57.543,,,,,,,,,,,,,,,,,,,,,,,,,,,,,,,,,,,,,,/muse/elements/blink
2019-04-24 14:15:57.917,,,,,,,,,,,,,,,,,,,,,,,,,,,,,,,,,,,,,,/muse/elements/blink
2019-04-24 14:15:58.372,1.238661703786699,1.751350603606668,1.492047862579694,0.992560603418269,0.4256087021829018,1.058696125997415,1.03614098308633,0.3951057211847431,0.3990325497590821,0.9098873833476794,0.904101461558999,0.7456322918987837,0.8749203291560012,0.5791371276464164,0.6745585515427379,1.111146416236951,0.3053349883660103,-0.3281354308797354,0.7874305025679679,0.7724247001467834,859.8534798534798,826.4102564102565,765.1648351648352,859.4505494505495,920.2930402930403,0.184814,0.189392,0.944641,-4.994507,23.716431,-6.602020,1,1,1,1,1,65.000000
2019-04-24 14:15:58.442,,,,,,,,,,,,,,,,,,,,,,,,,,,,,,,,,,,,,,/muse/elements/blink
2019-04-24 14:15:59.029,,,,,,,,,,,,,,,,,,,,,,,,,,,,,,,,,,,,,,/muse/elements/blink
2019-04-24 14:15:59.329,,,,,,,,,,,,,,,,,,,,,,,,,,,,,,,,,,,,,,/muse/elements/blink
2019-04-24 14:15:59.372,1.238661703786699,1.493460898591348,1.67900276151112,0.992560603418269,0.4256087021829018,0.8611168881879605,1.301874028325265,0.3951057211847431,0.3990325497590821,0.8814426644331672,0.890165451238954,0.7456322918987837,0.8749203291560012,0.7944942021443719,0.871035835878079,1.111146416236951,0.3053349883660103,0.780129092572959,0.9164564786604481,0.7724247001467834,813.1135531135532,809.0842490842491,772.014652014652,822.3809523809524,966.2271062271062,-0.177429,0.090027,0.985535,5.121613,-4.082336,-0.628052,1,1,1,1,1,65.000000
2019-04-24 14:15:59.778,,,,,,,,,,,,,,,,,,,,,,,,,,,,,,,,,,,,,,/muse/elements/blink
2019-04-24 14:16:00.240,,,,,,,,,,,,,,,,,,,,,,,,,,,,,,,,,,,,,,/muse/elements/blink
2019-04-24 14:16:00.372,1.238661703786699,1.06951842294828,1.585085679897731,0.992560603418269,0.4256087021829018,0.8352203048336317,1.241030716753706,0.3951057211847431,0.3990325497590821,0.8321595485221377,0.8524202670748714,0.7456322918987837,0.8749203291560012,0.7734656819023003,0.8934569175194403,1.111146416236951,0.3053349883660103,0.794328571267495,0.9117728213927535,0.7724247001467834,659.1941391941392,817.1428571428571,845.3479853479854,660.4029304029305,808.6813186813187,-0.374634,0.010376,0.945190,4.702911,-22.034149,7.162781,1,2,1,1,2,65.000000
2019-04-24 14:16:00.533,,,,,,,,,,,,,,,,,,,,,,,,,,,,,,,,,,,,,,/muse/elements/blink
2019-04-24 14:16:01.372,1.238661703786699,0.6016875831750154,1.39176056534718,0.992560603418269,0.4256087021829018,0.736737460515678,0.9360270947318944,0.3951057211847431,0.3990325497590821,0.7848762413040489,0.4740988432433624,0.7456322918987837,0.8749203291560012,0.7739050480018134,0.8165917785575079,1.111146416236951,0.3053349883660103,0.9302319994509695,0.9062271540049195,0.7724247001467834,853.8095238095239,806.2637362637363,786.1172161172161,873.5531135531136,783.2967032967033,0.220032,0.031555,1.005310,26.826782,-30.542755,-16.770477,1,2,1,1,2,65.000000
2019-04-24 14:16:01.403,,,,,,,,,,,,,,,,,,,,,,,,,,,,,,,,,,,,,,/muse/elements/blink
2019-04-24 14:16:01.639,,,,,,,,,,,,,,,,,,,,,,,,,,,,,,,,,,,,,,/muse/elements/blink
2019-04-24 14:16:02.023,,,,,,,,,,,,,,,,,,,,,,,,,,,,,,,,,,,,,,/muse/elements/blink
2019-04-24 14:16:02.155,,,,,,,,,,,,,,,,,,,,,,,,,,,,,,,,,,,,,,/muse/elements/jaw_clench
2019-04-24 14:16:02.308,,,,,,,,,,,,,,,,,,,,,,,,,,,,,,,,,,,,,,/muse/elements/blink
2019-04-24 14:16:02.334,,,,,,,,,,,,,,,,,,,,,,,,,,,,,,,,,,,,,,/muse/elements/jaw_clench
2019-04-24 14:16:02.372,1.238661703786699,1.391454604206511,1.39176056534718,0.992560603418269,0.4256087021829018,0.8499424997388889,0.9360270947318944,0.3951057211847431,0.3990325497590821,0.68352749807153,0.4740988432433624,0.7456322918987837,0.8749203291560012,0.6752556612926344,0.8165917785575079,1.111146416236951,0.3053349883660103,0.733750824618037,0.9062271540049195,0.7724247001467834,921.5018315018315,779.6703296703297,808.6813186813187,886.4468864468864,750.6593406593407,-0.003296,0.055725,0.948059,6.564636,-26.923981,-34.385834,1,2,1,1,2,65.000000
2019-04-24 14:16:03.294,,,,,,,,,,,,,,,,,,,,,,,,,,,,,,,,,,,,,,/muse/elements/blink
2019-04-24 14:16:03.373,1.238661703786699,1.683743483579315,1.23383511792217,0.992560603418269,0.4256087021829018,0.7974885264513957,0.9261743127915056,0.3951057211847431,0.3990325497590821,0.7348133852091356,0.5547081726985714,0.7456322918987837,0.8749203291560012,0.694345970570909,0.9536715444229213,1.111146416236951,0.3053349883660103,0.7280940783877615,0.8807001074391595,0.7724247001467834,816.3369963369963,805.4578754578755,799.8168498168499,804.2490842490843,746.2271062271062,0.242676,0.179077,0.958435,7.327271,-11.050720,-0.186920,1,2,1,1,2,65.000000
2019-04-24 14:16:03.836,,,,,,,,,,,,,,,,,,,,,,,,,,,,,,,,,,,,,,/muse/elements/blink
2019-04-24 14:16:04.372,1.238661703786699,1.507936443685011,0.9598569573544204,0.992560603418269,0.4256087021829018,0.4934143421780197,0.6822723127274297,0.3951057211847431,0.3990325497590821,0.4868087613160771,0.4677357538918882,0.7456322918987837,0.8749203291560012,0.5473599798218505,0.5549338637059422,1.111146416236951,0.3053349883660103,0.2526335370413738,0.3786378490918793,0.7724247001467834,806.6666666666667,800.2197802197802,809.0842490842491,809.4871794871796,760.3296703296703,-0.086121,0.076721,1.000061,0.687866,5.308533,-4.089813,1,2,1,1,2,65.000000
2019-04-24 14:16:04.408,,,,,,,,,,,,,,,,,,,,,,,,,,,,,,,,,,,,,,/muse/elements/blink
2019-04-24 14:16:04.931,,,,,,,,,,,,,,,,,,,,,,,,,,,,,,,,,,,,,,/muse/elements/blink
2019-04-24 14:16:05.381,1.238661703786699,1.406867790621027,1.191253444323657,0.992560603418269,0.4256087021829018,0.8692354245507581,1.015431478748445,0.3951057211847431,0.3990325497590821,0.8591013324189802,0.9947700991706754,0.7456322918987837,0.8749203291560012,0.7766389106644193,0.8357345091362334,1.111146416236951,0.3053349883660103,0.2797078626723493,0.8004589505364785,0.7724247001467834,789.3406593406594,759.92673992674,809.4871794871796,804.2490842490843,688.2051282051282,-0.157715,0.059631,0.991333,2.736511,-3.521576,0.396271,1,2,1,1,2,65.000000
2019-04-24 14:16:05.571,,,,,,,,,,,,,,,,,,,,,,,,,,,,,,,,,,,,,,/muse/elements/blink
2019-04-24 14:16:06.372,1.238661703786699,1.726826657056469,1.166100349831466,0.992560603418269,0.4256087021829018,1.185129635145856,0.9751013544267648,0.3951057211847431,0.3990325497590821,0.7705867076676959,1.009054273477233,0.7456322918987837,0.8749203291560012,0.7564303278206093,0.9319312414366245,1.111146416236951,0.3053349883660103,0.4827626325428626,0.9180094852039874,0.7724247001467834,794.5787545787546,808.2783882783883,796.996336996337,809.0842490842491,784.9084249084249,-0.167114,0.065918,0.990540,4.097290,-3.170166,-0.067291,1,2,1,1,2,65.000000
2019-04-24 14:16:06.657,,,,,,,,,,,,,,,,,,,,,,,,,,,,,,,,,,,,,,/muse/elements/blink
2019-04-24 14:16:07.016,,,,,,,,,,,,,,,,,,,,,,,,,,,,,,,,,,,,,,/muse/elements/blink
2019-04-24 14:16:07.372,1.238661703786699,1.676875163663507,0.8865152130007381,0.992560603418269,0.4256087021829018,1.223849589940109,0.4470285004173151,0.3951057211847431,0.3990325497590821,0.798892370857011,0.7244237102815723,0.7456322918987837,0.8749203291560012,0.6011895710146261,0.8408396065321693,1.111146416236951,0.3053349883660103,0.3704477567659723,0.8768068484514443,0.7724247001467834,792.1611721611722,804.6520146520147,807.0695970695971,801.8315018315019,749.047619047619,-0.182434,0.082092,0.986389,4.299164,-5.996399,0.037384,1,2,1,1,2,65.000000
2019-04-24 14:16:07.877,,,,,,,,,,,,,,,,,,,,,,,,,,,,,,,,,,,,,,/muse/elements/blink
2019-04-24 14:16:08.372,1.238661703786699,1.576068467724793,1.357293015404966,0.992560603418269,0.4256087021829018,1.104177825690696,1.008786210214446,0.3951057211847431,0.3990325497590821,0.5126094149253861,0.6917744230703107,0.7456322918987837,0.8749203291560012,0.5038584467205829,0.6458367254235411,1.111146416236951,0.3053349883660103,0.2042549356950286,0.5234112425708791,0.7724247001467834,811.0989010989011,796.1904761904763,788.5347985347986,818.7545787545788,653.1501831501831,-0.061768,0.121765,0.996704,5.286102,-6.302948,-5.794525,1,2,1,1,2,65.000000
2019-04-24 14:16:09.075,,,,,,,,,,,,,,,,,,,,,,,,,,,,,,,,,,,,,,/muse/elements/blink
2019-04-24 14:16:09.371,1.238661703786699,0.7011803303974063,1.328553659926979,0.992560603418269,0.4256087021829018,0.5264359340253602,0.9382998370476034,0.3951057211847431,0.3990325497590821,0.4232349404758506,0.6538379161010955,0.7456322918987837,0.8749203291560012,0.3839741459872156,0.4468881726416351,1.111146416236951,0.3053349883660103,-0.06547985497933054,0.2953386633139213,0.7724247001467834,839.3040293040293,811.9047619047619,786.5201465201466,817.5457875457876,792.1611721611722,-0.123352,0.070862,1.017517,-4.530945,-11.805878,7.902985,1,2,1,1,2,65.000000
2019-04-24 14:16:09.771,,,,,,,,,,,,,,,,,,,,,,,,,,,,,,,,,,,,,,/muse/elements/blink
2019-04-24 14:16:10.349,,,,,,,,,,,,,,,,,,,,,,,,,,,,,,,,,,,,,,/muse/elements/blink
2019-04-24 14:16:10.372,1.238661703786699,0.6602320630223674,1.517749225531101,0.992560603418269,0.4256087021829018,0.8030139131937762,1.021434237700465,0.3951057211847431,0.3990325497590821,0.6715276883185746,0.6712128699284535,0.7456322918987837,0.8749203291560012,0.3244865333761567,0.5736723768183759,1.111146416236951,0.3053349883660103,-0.1233925263816738,0.2963721087468126,0.7724247001467834,830.4395604395604,788.5347985347986,791.3553113553114,834.8717948717949,898.1318681318681,-0.099121,0.019165,0.999939,6.325378,-6.848755,-1.914062,1,2,1,1,2,65.000000
2019-04-24 14:16:11.311,,,,,,,,,,,,,,,,,,,,,,,,,,,,,,,,,,,,,,/muse/elements/blink
2019-04-24 14:16:11.372,1.238661703786699,1.163598074040204,3.007625571625598,0.992560603418269,0.4256087021829018,0.4812381831855625,1.945025632977786,0.3951057211847431,0.3990325497590821,0.4414073175152517,2.668684649656322,0.7456322918987837,0.8749203291560012,0.3131226957384565,1.570235836327282,1.111146416236951,0.3053349883660103,-0.01250212855119936,1.054718543991428,0.7724247001467834,nan,nan,nan,nan,nan,-0.124451,0.092224,0.991577,9.039459,-3.289795,-26.393127,1,2,1,1,2,65.000000
2019-04-24 14:16:12.122,,,,,,,,,,,,,,,,,,,,,,,,,,,,,,,,,,,,,,/muse/elements/blink
2019-04-24 14:16:12.385,1.238661703786699,3.431275700338583,3.3188698539993,0.992560603418269,0.4256087021829018,2.466685206638137,2.316822979043232,0.3951057211847431,0.3990325497590821,2.719680777821539,2.735600717538321,0.7456322918987837,0.8749203291560012,1.934809321024801,1.87544204507111,1.111146416236951,0.3053349883660103,1.365960008118244,1.289204792595547,0.7724247001467834,832.8571428571429,827.2161172161173,808.2783882783883,837.6923076923077,655.1648351648352,-0.149353,0.076965,0.991821,5.218811,-6.699219,-0.882263,1,2,1,1,2,65.000000
2019-04-24 14:16:13.372,1.238661703786699,3.065435476801295,3.028556709446792,0.992560603418269,0.4256087021829018,2.111922935005443,2.091479716322513,0.3951057211847431,0.3990325497590821,2.719680777821539,2.735181904745359,0.7456322918987837,0.8749203291560012,1.603650971775694,1.649833795540803,1.111146416236951,0.3053349883660103,1.103379471666337,1.107851337882181,0.7724247001467834,796.5934065934066,794.981684981685,793.3699633699634,803.8461538461539,819.96336996337,-0.135986,0.085144,0.987793,4.949646,-7.484283,-0.448608,1,2,1,1,2,65.000000
2019-04-24 14:16:14.372,0.2217605456776651,0.08227602869348195,-0.0993770417044087,0.5269412921239534,0.1514695257109074,-0.146057481482482,-0.02238115067937928,0.7349090331462711,0.960962667052695,0.3076789808601171,0.4334219603059048,1.015093358384013,0.7559101211765673,0.6616907397682864,0.5276228031310818,0.6234988533075715,0.1694515168943721,0.4622748688776586,0.493922103247605,0.415102817968266,829.2307692307693,803.8461538461539,794.981684981685,834.4688644688645,801.025641025641,-0.116699,0.071289,0.987305,4.583282,-4.201965,-1.495361,1,1,1,1,1,65.000000
2019-04-24 14:16:15.159,,,,,,,,,,,,,,,,,,,,,,,,,,,,,,,,,,,,,,/muse/elements/blink
2019-04-24 14:16:15.372,0.4030929879909666,0.805801904292807,0.5923685176445209,0.4561312869360478,0.616120269404373,0.5799913719455818,0.3434765775364288,0.7695703416856127,1.115496152177536,0.8957735288316284,0.5296832070334736,1.303743703019959,0.7918711659067075,0.6237508169541921,0.5516467337407402,0.7924860454211038,0.3520931022520735,0.3965651577163421,0.4356743091653006,0.5238272475191615,821.978021978022,815.934065934066,782.0879120879121,824.7985347985348,781.6849816849817,-0.138672,0.100037,0.990295,6.400146,-4.859924,2.631836,1,1,1,1,1,65.000000
2019-04-24 14:16:16.380,0.6206212219317577,1.433216327920991,1.024945489737559,0.6694638676163623,0.9121066809948036,1.14215811166746,0.6860875974994518,0.8556426817422033,1.070459064561454,1.002092655197948,0.6046191954712529,1.303743703019959,0.8891874519731721,0.6969337891284493,0.5893399985598912,0.9466289053332914,0.5410080004930333,0.4287051544226864,0.3244212000425709,0.6592699219814059,805.4578754578755,799.4139194139194,798.2051282051282,796.996336996337,768.3882783882784,-0.128784,0.140686,0.969727,4.351501,-5.996399,-1.824341,1,1,1,1,1,65.000000
2019-04-24 14:16:17.371,3.072701501106947,3.04426231248387,3.038956052431377,3.188442089540255,2.154834584060646,2.105838176008445,2.097403634319301,2.257195657220151,2.647643552218082,2.618574258472176,2.626403869422357,2.695230250207081,1.675265700212685,1.642835369490236,1.630656081183464,1.788552047956693,1.132215260995764,1.11995751027313,1.118011258631345,1.229100763933601,797.8021978021978,805.0549450549451,805.0549450549451,801.025641025641,812.7106227106227,-0.130615,0.131592,0.989685,3.297272,-5.876770,-1.188812,1,1,1,1,1,65.000000
2019-04-24 14:16:18.372,2.634928501972513,2.628399809596941,2.619382656312888,2.886451580262313,1.724624137886656,1.678758044336143,1.667344426104551,1.966648906128632,2.361308201042037,2.38877123036406,2.372453715786799,2.635322441936798,1.321625317270801,1.249168408297697,1.277061944344246,1.484617048271532,0.7107014619978359,0.7751651804783354,0.7717984726772926,0.9207638624963375,809.0842490842491,821.1721611721612,783.6996336996338,816.3369963369963,734.9450549450549,-0.148438,0.159790,0.980164,5.689850,-4.732819,3.828125,1,1,1,1,1,65.000000
2019-04-24 14:16:19.372,0.5440113704267824,0.1880780540688027,0.03750491068710083,0.3164344658632807,0.7549841469477678,0.1968636554024924,-0.1065535914501289,0.6688347226877863,1.243495185692264,0.3125662237972394,0.3372838801101755,1.116142882175285,0.6923189739453114,0.4445578938980516,0.4901350470802738,0.7477092781394122,0.3411294599177308,0.2457108022964698,0.1153194260903111,0.4381348014880744,782.4908424908425,794.1758241758242,783.2967032967033,800.2197802197802,807.8754578754579,-0.133057,0.170654,0.980530,3.798218,-6.280518,-1.779480,1,1,1,1,1,65.000000
2019-04-24 14:16:20.372,0.3310735596695135,0.1121114894957629,0.1022271717392812,0.1260397468500412,0.9754622951019578,0.02871122785510951,-0.01268058412621949,1.093048281954216,1.46134840568552,0.2696103840298811,0.4160029595027901,1.519015090086345,0.6445426144036485,0.5159719739709477,0.4520723217453219,0.8048465541169157,0.4986955214561673,0.2191917240339493,0.1336246306893566,0.4106189468893882,801.4285714285714,789.3406593406594,815.934065934066,799.4139194139194,628.5714285714286,-0.140076,0.173096,0.975647,3.686066,-3.917847,-2.086029,1,1,1,1,1,65.000000
2019-04-24 14:16:21.372,0.3535932732586959,-0.1709438119181319,-0.003314087142960527,0.2476442476239946,1.104703419363679,-0.08230998022558642,0.05335728942744222,1.216384381749342,1.444894648507398,0.2459706987056252,0.4041972642857078,1.490927608860656,0.6832026385540051,0.2770288382396136,0.3670883789582916,0.6255672772391588,0.1702221234954424,0.1075512070680373,0.06263929893875557,0.3955549749137259,809.0842490842491,806.2637362637363,812.3076923076924,823.992673992674,975.0915750915751,-0.146057,0.176331,0.980347,4.059906,-5.510406,-0.837402,1,1,1,1,1,65.000000
2019-04-24 14:16:22.372,0.3508670493110048,-0.2449047914992011,-0.4801416507706785,0.6082045393432249,0.9839392660919148,-0.2714442138313805,0.1115691216480714,1.054445932431785,1.489327148238131,0.2852136212079311,0.192441251035975,1.556903241212382,0.8070326592189325,0.2097119863983295,0.2074757042382679,0.7948145099248075,0.1363440580407487,0.001414224286323228,-0.003572985337812429,0.1626332092552275,809.0842490842491,807.8754578754579,805.8608058608058,819.96336996337,923.1135531135532,-0.145874,0.173584,0.979431,3.738403,-5.114136,-1.757050,1,1,1,1,1,65.000000
2019-04-24 14:16:23.384,0.6250618453032935,1.143435864154511,0.5241259314326497,0.6976344583410752,0.9486581151080702,0.8005567877381918,0.3424667749293691,0.9743983160298016,1.479470447899546,0.9460560625534389,0.3697867215827496,1.522314818432257,0.8183031139369998,0.4057720139209974,0.1804739736630691,0.7078386878604985,0.1036392607067292,-0.01172499250430345,-0.06045702110972802,0.2711959841380324,790.952380952381,802.2344322344322,799.0109890109891,798.6080586080586,1299.450549450549,-0.151794,0.171509,0.979431,4.239349,-5.794525,-1.368256,1,1,1,1,1,65.000000
2019-04-24 14:16:24.142,,,,,,,,,,,,,,,,,,,,,,,,,,,,,,,,,,,,,,/muse/elements/blink
2019-04-24 14:16:24.371,0.7755339747781587,1.174112242465643,0.5151399983542756,0.4318550648157013,0.919074102323361,0.836369848266271,0.1903208944735856,1.069855743606906,1.126952509863165,0.9460560625534389,0.5235736312648293,1.347526406253929,0.7589233148319858,0.4102164046552182,0.2267575435213413,0.7192133397479668,0.1167116850797119,-0.06416778798895524,-0.1151527278775401,0.4596039837038953,830.8424908424909,809.8901098901099,803.8461538461539,834.0659340659341,960.1831501831502,-0.190369,0.152161,0.977051,2.250519,-4.815063,-10.146027,1,1,1,1,1,65.000000
2019-04-24 14:16:25.372,0.1424280950148754,0.5838123341510708,0.2899363049941717,0.3945289404797251,0.655325272774403,0.41999465036566,-0.06863503181597061,0.6459557353820212,1.036431532313405,0.5314450651006751,0.4523938810546485,1.117702507934741,0.6164485639453545,0.3713493006832803,0.2925724214434092,0.7122019053954709,0.1378626496552782,0.04255411744582263,-0.1142545145154112,0.5396050949443665,864.2857142857143,801.8315018315019,780.4761904761905,869.1208791208792,734.5421245421246,-0.201111,0.106628,0.974548,-1.876678,-1.428070,8.732910,1,1,1,1,1,65.000000
2019-04-24 14:16:25.426,,,,,,,,,,,,,,,,,,,,,,,,,,,,,,,,,,,,,,/muse/elements/blink
2019-04-24 14:16:26.372,0.1424280950148754,0.3270229876614406,1.286657921042736,0.3945289404797251,0.655325272774403,0.1146102569156949,1.003302070840902,0.6459557353820212,1.036431532313405,0.4917176245071258,0.6347905727383727,1.117702507934741,0.6164485639453545,0.2955647981512415,0.1869510584586413,0.7122019053954709,0.1378626496552782,0.09199122053491908,-0.3157507987606191,0.5396050949443665,796.5934065934066,805.8608058608058,802.6373626373627,789.7435897435897,943.6630036630037,-0.264587,0.077759,0.968384,5.316010,-9.660034,-3.297272,1,1,1,1,1,65.000000
