TimeStamp,Delta_TP9,Delta_AF7,Delta_AF8,Delta_TP10,Theta_TP9,Theta_AF7,Theta_AF8,Theta_TP10,Alpha_TP9,Alpha_AF7,Alpha_AF8,Alpha_TP10,Beta_TP9,Beta_AF7,Beta_AF8,Beta_TP10,Gamma_TP9,Gamma_AF7,Gamma_AF8,Gamma_TP10,RAW_TP9,RAW_AF7,RAW_AF8,RAW_TP10,AUX_RIGHT,Accelerometer_X,Accelerometer_Y,Accelerometer_Z,Gyro_X,Gyro_Y,Gyro_Z,HeadBandOn,HSI_TP9,HSI_AF7,HSI_AF8,HSI_TP10,Battery,Elements
2019-04-22 15:07:56.883,,,,,,,,,,,,,,,,,,,,,,,,,,,,,,,,,,,,,,/muse/elements/blink
2019-04-22 15:07:57.646,,,,,,,,,,,,,,,,,,,,,,,,,,,,,,,,,,,,,,/muse/elements/blink
2019-04-22 15:07:57.761,0.8703445161783053,1.079081143033068,1.12949984819762,1.187845798507819,0.5024493157155053,0.7784950249677461,0.8406383633976606,0.189823986762114,1.224093376542296,0.7403505766433894,1.040467593198841,0.8093576014471532,0.7305367779494152,0.009185919055156644,0.1223753661385701,0.6751439433771491,0.02946843781056308,-0.4279628362064243,-0.4954171530939075,0.04237146855320455,774.0293040293041,759.1208791208792,886.4468864468864,832.0512820512821,1109.67032967033,-0.290833,0.169800,0.955017,3.828125,-7.566528,-2.011261,1,2,1,1,2,55.000000
2019-04-22 15:07:58.751,,,,,,,,,,,,,,,,,,,,,,,,,,,,,,,,,,,,,,/muse/elements/blink
2019-04-22 15:07:58.765,0.8703445161783053,1.340055866335503,1.468771558698668,1.187845798507819,0.5024493157155053,1.01538563996726,0.8635200061118734,0.189823986762114,1.224093376542296,0.9107611355243915,0.8947550018065564,0.8093576014471532,0.7305367779494152,0.0490836224072234,0.1899615794898803,0.6751439433771491,0.02946843781056308,-0.2889787644895286,-0.4360629358914859,0.04237146855320455,848.5714285714286,796.1904761904763,794.1758241758242,848.974358974359,708.3516483516484,-0.289795,0.169800,0.951538,4.478607,-7.850647,-3.035583,1,2,1,1,2,55.000000
2019-04-22 15:07:59.770,0.8703445161783053,0.9519029292854834,1.618511502239557,1.187845798507819,0.5024493157155053,0.7242686603966532,0.9776569997424925,0.189823986762114,1.224093376542296,0.8035689973051856,0.9598347056216509,0.8093576014471532,0.7305367779494152,0.1240869529812362,0.1093634072795993,0.6751439433771491,0.02946843781056308,-0.4493467905039103,-0.4325190583274752,0.04237146855320455,818.7545787545788,807.0695970695971,790.952380952381,815.5311355311355,744.2124542124542,-0.299988,0.165405,0.946106,4.321594,-8.605804,-1.876678,1,2,1,1,2,55.000000
2019-04-22 15:08:00.761,0.8796954935019451,0.8597874140892072,1.653933538306684,1.369983321146971,0.6782766841147435,0.4021751376789448,0.9409940554542392,0.6261425453302801,0.9292207365771948,0.6109568165482431,0.9672794203410642,0.8654723426491753,0.7234461691319156,0.1253237634251233,0.3090793282584388,0.8324515701264411,0.07821225817933307,-0.5470457560666929,-0.3645469325805293,0.1340476241980291,815.5311355311355,805.4578754578755,799.4139194139194,817.1428571428571,1089.120879120879,-0.298767,0.164917,0.950256,3.977661,-6.983337,-2.557068,1,1,1,1,1,55.000000
2019-04-22 15:08:01.761,0.6818791613523603,0.7166964308219689,1.068016016380001,0.8949514483288649,0.4661798284843985,0.2020405384373593,0.7810333384607102,0.5228207221060319,0.9999956424902665,0.5332606945590032,0.7687496878560163,0.9832525147077725,0.5483480094873868,0.1194268775487972,0.2024181572897271,0.6041605821481116,0.1497157527648089,-0.3739416299393853,-0.2984398854315903,0.06828936514969759,829.2307692307693,800.2197802197802,820.7692307692308,827.2161172161173,799.0109890109891,-0.302917,0.163147,0.949219,3.828125,-8.867493,-2.078552,1,1,1,1,1,55.000000
2019-04-22 15:08:02.411,,,,,,,,,,,,,,,,,,,,,,,,,,,,,,,,,,,,,,/muse/elements/blink
2019-04-22 15:08:02.761,0.8259638312315755,0.7670062857651362,1.117558190727744,0.7037285928586251,0.8536347321666907,0.5395330321795302,0.9695726921989651,0.4411674935393772,1.049982855553377,0.7249341801229439,1.053929820602815,0.9853286617244281,0.6926876062190469,0.1765135915821723,0.1402250113988142,0.5720800479099899,0.2823175844763843,-0.3961068168711335,-0.3143086124760761,0.1131289093506864,819.96336996337,808.2783882783883,807.0695970695971,819.5604395604396,623.7362637362637,-0.308533,0.167725,0.944702,4.164581,-8.747864,-1.084137,1,1,1,1,1,55.000000
2019-04-22 15:08:03.761,0.8988748718051567,0.970554528140304,1.362909275221658,1.026661285440796,0.8117430773930704,0.6894736438193827,1.169530875392201,0.5742801605571388,0.948119202108165,0.7186365081844073,0.9977508354410362,0.8765450406614911,0.7132535597740717,0.1043819619388602,0.1579294562806285,0.5816933318052129,0.01340047987286863,-0.3255583700054864,-0.4597285953755856,0.1616780113434903,877.5824175824176,806.2637362637363,804.2490842490843,865.8974358974359,1134.249084249084,-0.306580,0.166504,0.947937,4.695435,-8.867493,-1.966400,1,1,1,1,1,55.000000
2019-04-22 15:08:03.852,,,,,,,,,,,,,,,,,,,,,,,,,,,,,,,,,,,,,,/muse/elements/blink
2019-04-22 15:08:04.761,0.8988748718051567,0.8499311857063995,1.10661880225811,1.026661285440796,0.8117430773930704,0.5873679940997003,0.7950703106183998,0.5742801605571388,0.948119202108165,0.3282856119707708,0.8150284445580414,0.8765450406614911,0.7132535597740717,-0.0220018684987492,0.1242904737543213,0.5816933318052129,0.01340047987286863,-0.5236937040905216,-0.4659107964584075,0.1616780113434903,811.0989010989011,800.2197802197802,805.0549450549451,824.7985347985348,703.1135531135532,-0.310181,0.167419,0.950439,4.216919,-9.054413,-1.712189,1,1,1,1,1,55.000000
2019-04-22 15:08:05.645,,,,,,,,,,,,,,,,,,,,,,,,,,,,,,,,,,,,,,/muse/elements/blink
2019-04-22 15:08:05.769,0.402525553762582,0.6195425469886358,1.139318416876762,0.7048517305515369,0.6499010292719531,0.4404578638797967,0.8951661649371835,0.712277254331706,0.9799723896064285,0.3367080408386847,0.8242954656664946,0.6709536601802991,0.7806963249904412,0.1270664599676577,0.2011539145526936,0.7883832562855998,0.06836785581533898,-0.6847398183152767,-0.37902578378105,0.2019242466894604,832.4542124542124,807.8754578754579,799.8168498168499,832.0512820512821,1024.652014652015,-0.307556,0.170898,0.949280,3.274841,-8.882446,-2.033691,1,1,1,1,1,55.000000
2019-04-22 15:08:06.547,,,,,,,,,,,,,,,,,,,,,,,,,,,,,,,,,,,,,,/muse/elements/blink
2019-04-22 15:08:06.762,0.476762313197314,0.8787068951826418,1.280890123843041,0.5757103406916804,0.6667445571003721,0.6635249122908637,0.6744341498090711,0.5596740550571042,0.9791563443893042,0.3377790013892515,0.8038634154945813,0.5452429359273967,0.8333606460532771,-0.03499015472539882,0.2429432070764231,0.6910901812498765,0.1060234529806359,-0.6972635675285671,-0.4649490813162322,0.2868600670083061,836.0805860805862,795.7875457875458,805.4578754578755,830.8424908424909,1036.336996336996,-0.304382,0.170532,0.946045,3.813171,-8.628235,-1.727142,1,1,1,1,1,55.000000
2019-04-22 15:08:07.140,,,,,,,,,,,,,,,,,,,,,,,,,,,,,,,,,,,,,,/muse/elements/blink
2019-04-22 15:08:07.374,,,,,,,,,,,,,,,,,,,,,,,,,,,,,,,,,,,,,,/muse/elements/blink
2019-04-22 15:08:07.761,0.476762313197314,1.205610466326312,1.68810744828864,0.5757103406916804,0.6667445571003721,0.8882751410228046,1.028230508811246,0.5596740550571042,0.9791563443893042,0.431396317813041,0.9809735874383793,0.5452429359273967,0.8333606460532771,0.06510579385235685,0.06869007754921164,0.6910901812498765,0.1060234529806359,-0.6799411791680384,-0.4708473883226427,0.2868600670083061,808.2783882783883,794.981684981685,804.2490842490843,800.2197802197802,836.0805860805862,-0.302002,0.158875,0.950378,4.052429,-8.912354,-2.100983,1,1,1,1,1,50.000000
2019-04-22 15:08:08.761,0.476762313197314,1.291597949482911,1.835695183355639,0.5757103406916804,0.6667445571003721,0.7468648351969783,1.423709068022797,0.5596740550571042,0.9791563443893042,0.512293780184543,1.184850583998399,0.5452429359273967,0.8333606460532771,0.07708775323506094,0.1209301165427896,0.6910901812498765,0.1060234529806359,-0.5501425479848612,-0.4357614252442812,0.2868600670083061,875.5677655677656,792.1611721611722,794.981684981685,863.8827838827839,703.919413919414,-0.309875,0.154480,0.949585,3.364563,-9.375916,-1.622467,1,2,1,1,2,50.000000
2019-04-22 15:08:08.789,,,,,,,,,,,,,,,,,,,,,,,,,,,,,,,,,,,,,,/muse/elements/blink
2019-04-22 15:08:09.762,0.476762313197314,1.092196516156902,1.606968813484963,0.5757103406916804,0.6667445571003721,0.8509854689757609,1.019731344557937,0.5596740550571042,0.9791563443893042,0.6143668550064109,1.15423226839713,0.5452429359273967,0.8333606460532771,0.175871993354713,0.09279965410102219,0.6910901812498765,0.1060234529806359,-0.482520903071518,-0.5642324418299686,0.2868600670083061,871.1355311355312,787.3260073260074,799.4139194139194,878.7912087912089,1008.937728937729,-0.302673,0.152771,0.946960,4.830017,-9.316101,-1.099091,1,2,1,1,2,50.000000
2019-04-22 15:08:09.793,,,,,,,,,,,,,,,,,,,,,,,,,,,,,,,,,,,,,,/muse/elements/blink
2019-04-22 15:08:10.764,0.476762313197314,1.138490330238897,1.126758220923084,0.5757103406916804,0.6667445571003721,0.7490385596442728,0.682550680451226,0.5596740550571042,0.9791563443893042,0.4872623413910822,0.698455559545568,0.5452429359273967,0.8333606460532771,0.2190356216747451,-0.1088733387348935,0.6910901812498765,0.1060234529806359,-0.5266331839556389,-0.5352374283938164,0.2868600670083061,892.0879120879121,819.1575091575091,770,877.1794871794872,747.8388278388279,-0.307129,0.155273,0.944824,4.560852,-7.992706,-2.833710,1,2,1,1,2,50.000000
2019-04-22 15:08:10.846,,,,,,,,,,,,,,,,,,,,,,,,,,,,,,,,,,,,,,/muse/elements/blink
2019-04-22 15:08:11.761,0.476762313197314,1.109412399035253,1.665724747681499,0.5757103406916804,0.6667445571003721,0.6730698998630898,1.349379992300524,0.5596740550571042,0.9791563443893042,0.3472647270658203,0.9718283220266738,0.5452429359273967,0.8333606460532771,0.2851963974601772,0.3849555238101954,0.6910901812498765,0.1060234529806359,-0.467046032173868,-0.7627257014913178,0.2868600670083061,834.4688644688645,799.8168498168499,809.4871794871796,830.0366300366301,756.3003663003664,-0.304749,0.170898,0.946472,2.901001,-9.024506,-2.243042,1,2,1,1,2,50.000000
2019-04-22 15:08:12.762,0.9062596350936843,0.556291172564668,1.100112842508677,0.9381552606189651,0.536636178103325,0.3088708997183591,0.6653153254582067,0.5024310861074354,0.7961730076205351,0.3799794339382882,0.8122758413319069,0.8018422920636336,0.4639925730849799,0.04622272058831813,0.1011735508862485,0.5037047280430293,-0.04377523551345931,-0.5414265983720187,-0.6005239637814963,-0.06558077468065499,824.7985347985348,801.4285714285714,792.967032967033,832.4542124542124,956.5567765567766,-0.298828,0.166931,0.949341,4.201965,-7.088013,-2.310333,1,1,1,1,1,50.000000
2019-04-22 15:08:13.151,,,,,,,,,,,,,,,,,,,,,,,,,,,,,,,,,,,,,,/muse/elements/blink
2019-04-22 15:08:13.761,1.118010787548477,0.7473343758847174,0.9364002251174427,1.237610888487366,0.5900915266869013,0.2844739547080093,0.5503881704017691,0.764486782341621,0.7895827154590793,0.2694610085524282,0.614137794334862,0.8067912404362082,0.4472493748560434,-0.1440481572056538,0.02258805932418185,0.5646075739818953,0.01674931642434997,-0.4650653008460625,-0.4549433161972202,-0.04746834343967742,824.7985347985348,806.6666666666667,798.6080586080586,832.0512820512821,680.952380952381,-0.303772,0.158447,0.937988,3.484192,-9.069366,-2.130890,1,1,1,1,1,50.000000
2019-04-22 15:08:14.761,0.7451550164114912,0.7136891808339469,0.528911570369679,0.7334407866579009,0.6535511464945465,0.1018978499124007,0.5358180876207188,0.52838123919321,0.572745986340053,0.1588423259634694,0.394811263823641,0.8349299259929817,0.5228476774565579,0.119419749882035,-0.03228988865502374,0.4047630571112232,-0.3521619073209446,-0.4431747447016774,-0.4894621379542284,-0.03397721519270529,855.8241758241759,797.3992673992674,795.7875457875458,855.8241758241759,818.7545787545788,-0.305664,0.158508,0.949829,4.344025,-8.426361,-2.190704,1,1,1,1,1,50.000000
2019-04-22 15:08:14.809,,,,,,,,,,,,,,,,,,,,,,,,,,,,,,,,,,,,,,/muse/elements/blink
2019-04-22 15:08:15.772,0.5534945382089506,0.78840833004624,0.6926486781928168,0.6041339982423324,0.6606366015861873,0.2888585164727977,0.2867287838669946,0.5018203736161121,0.5622127240657124,0.2687996044668949,0.3922488031623758,0.8178702026637668,0.5012243955568292,0.1152585211174425,0.03655304456529306,0.4246667025913961,-0.3372262659007177,-0.495034105112929,-0.5754743645087362,-0.0503075058038807,819.1575091575091,806.6666666666667,804.2490842490843,823.1868131868132,1014.578754578755,-0.302368,0.165100,0.951172,4.777679,-8.927307,-1.420593,1,1,1,1,1,50.000000
2019-04-22 15:08:16.762,0.6570067096349262,0.4680103685706671,0.675620060140236,0.838101537706237,0.4788983172087563,0.04439037628588809,0.348528233328519,0.6282251955179751,1.004907711105538,0.211808434689142,0.4175674027903417,0.709704042382611,0.5805976507383734,-0.07473989057856552,0.07493129741319693,0.4434998405935318,-0.08093929246643664,-0.4483134134816963,-0.5446928676552671,0.1056857841696853,898.1318681318681,789.7435897435897,794.981684981685,908.2051282051282,759.1208791208792,-0.304077,0.164124,0.950134,3.955231,-8.246918,-0.814972,1,1,1,1,1,50.000000
2019-04-22 15:08:16.842,,,,,,,,,,,,,,,,,,,,,,,,,,,,,,,,,,,,,,/muse/elements/blink
2019-04-22 15:08:17.762,0.6974205524522311,0.8742395902858938,0.3130154087383121,0.6494643509297935,0.4376203715599071,0.6994864360244041,-0.03010094414513242,0.4757547439232511,0.9077296179736183,0.2709165697358951,0.2720989321120821,0.3661525422215059,0.420005390378502,0.1031530175810909,0.04776115971735978,0.3048131043600485,-0.1025976879746081,-0.563112797365766,-0.4983114201320237,0.1377692763412823,809.4871794871796,786.9230769230769,809.8901098901099,820.3663003663004,749.4505494505495,-0.301880,0.167297,0.946106,4.007568,-7.962799,-2.572021,1,1,1,1,1,55.000000
2019-04-22 15:08:18.721,,,,,,,,,,,,,,,,,,,,,,,,,,,,,,,,,,,,,,/muse/elements/blink
2019-04-22 15:08:18.762,0.8744038600339638,0.55618954117548,0.6187308999671127,0.8824382750537875,0.4528139129106132,0.2446758193918877,0.02548735570209011,0.2349802836541904,0.5900334027946487,0.6263124951197949,0.3723995432817915,0.7225374524056858,0.4872939234846975,0.1509118488336154,0.06324669433665103,0.5008513431030522,-0.1113426533991955,-0.4782645929935356,-0.457693237471191,0.02086221382716603,892.4908424908425,799.4139194139194,796.996336996337,888.8644688644689,816.7399267399268,-0.293030,0.172363,0.952271,4.209442,-9.114227,-2.168274,1,1,1,1,1,55.000000
2019-04-22 15:08:19.762,0.9947420725028252,0.8158936523226086,0.7547846482892687,1.000540035518883,0.5872148878324684,0.2421954991936776,0.168383570550619,0.3133785242298642,0.5813836597787637,0.6211417004189363,0.355846621262421,0.5431867074697292,0.5647556044628809,0.2758108853360194,0.1475824509141664,0.6611528364728161,-0.1028918131025626,-0.3571116034395738,-0.4046441700623745,0.1061346177184658,810.2930402930403,802.6373626373627,796.1904761904763,804.6520146520147,824.7985347985348,-0.286194,0.167175,0.950195,4.897308,-9.450684,-1.801910,1,1,1,1,1,55.000000
2019-04-22 15:08:19.950,,,,,,,,,,,,,,,,,,,,,,,,,,,,,,,,,,,,,,/muse/elements/blink
2019-04-22 15:08:20.762,0.9715311238587666,0.7373260568106148,0.6258767367623389,0.9242612039393249,0.5245674672452081,0.2793229820728699,0.3023224087534324,0.3365772504361834,0.6963243590968197,0.1971132365784226,0.232028713626503,0.5492102046629617,0.5966946411066214,-0.04652948493676705,0.01681229029029855,0.6441476244554215,-0.0983462685183684,-0.5077640601168988,-0.5511518029333619,0.1237431127813903,815.5311355311355,802.2344322344322,792.1611721611722,814.3223443223443,786.5201465201466,-0.287109,0.167236,0.954102,4.179535,-9.689941,-1.203766,1,1,1,1,1,55.000000
2019-04-22 15:08:21.761,0.668469982487885,0.590627879740287,0.4604968815329251,0.7091852690669889,0.1576747898423035,0.08688974103357064,0.2432482713619418,0.3948295232858969,0.5412779790226577,0.1280006933869906,0.2710846698893288,0.774886040100257,0.3763607139731153,-0.2000804851653027,-0.1513277479590859,0.4076930830354182,-0.2324412847763971,-0.551384074745193,-0.6223137610501555,-0.1072865046714663,836.0805860805862,803.4432234432235,804.2490842490843,832.4542124542124,792.1611721611722,-0.278137,0.172241,0.954529,3.932800,-9.174042,-1.009369,1,1,1,1,1,55.000000
2019-04-22 15:08:22.761,0.7550867766032603,0.1794044701962332,0.4649094760219749,0.731467089650668,0.4269028411786991,-0.4833841920602672,0.1788378214998427,0.5009457696260329,0.8125042878090647,-0.06494965295932541,0.1530923858528849,0.9018168132173523,0.4756317657112129,-0.1106938864909531,-0.1984030612416145,0.4204429270605539,-0.1725148479845449,-0.5612380054365987,-0.5059178713567783,0.01798711145845055,823.992673992674,805.4578754578755,796.5934065934066,815.1282051282052,854.2124542124542,-0.280762,0.172791,0.954712,3.820648,-8.179626,-1.203766,1,1,1,1,1,55.000000
2019-04-22 15:08:23.113,,,,,,,,,,,,,,,,,,,,,,,,,,,,,,,,,,,,,,/muse/elements/blink
2019-04-22 15:08:23.769,0.8532855601730804,0.7013911003252691,0.9645181351704933,0.9454868307272972,0.6646966081560935,0.549143457016963,0.7245966739835481,0.6686769509030764,0.8259493485615972,0.05789083966810165,0.4283032710850657,0.8303682010889811,0.6910491510683852,0.05710050900610494,-0.07641978809675795,0.5991991445769758,-0.1247834942374049,-0.4180044492827145,-0.355834814310559,0.1417321102194835,822.3809523809524,796.5934065934066,788.5347985347986,814.7252747252747,826.4102564102565,-0.286377,0.172485,0.957581,4.463654,-8.949738,-1.233673,1,1,1,1,1,55.000000
2019-04-22 15:08:24.144,,,,,,,,,,,,,,,,,,,,,,,,,,,,,,,,,,,,,,/muse/elements/blink
2019-04-22 15:08:24.762,0.8164917538761175,0.8181284146134986,1.214018043503507,0.9920500606148647,0.7518021014715182,0.6062792381980049,1.039124019355429,0.753727175142231,0.8259493485615972,0.347901824137077,0.6230906617479155,0.8303682010889811,0.7877811319651905,0.05545678593756839,0.06119068390782451,0.6759146626167023,-0.1262097328204398,-0.2379375216321534,-0.3129649054225025,0.1017218330749532,629.7802197802198,829.2307692307693,790.1465201465202,626.5567765567765,787.3260073260074,-0.286621,0.173462,0.952637,3.955231,-10.160980,-1.644897,1,1,1,1,1,55.000000
2019-04-22 15:08:24.930,,,,,,,,,,,,,,,,,,,,,,,,,,,,,,,,,,,,,,/muse/elements/blink
2019-04-22 15:08:25.762,0.8164917538761175,1.035975468320639,1.074042048895395,0.9920500606148647,0.7518021014715182,0.688286056129679,0.9848415257500542,0.753727175142231,0.8259493485615972,0.3724315902738402,0.664732348550793,0.8303682010889811,0.7877811319651905,0.0687633634823753,0.1732303901253128,0.6759146626167023,-0.1262097328204398,-0.4949125631398795,-0.3899592185817587,0.1017218330749532,841.7216117216118,796.1904761904763,830.4395604395604,840.9157509157509,822.3809523809524,-0.281250,0.171570,0.954590,4.747772,-9.069366,-0.919647,1,2,1,1,2,55.000000
2019-04-22 15:08:26.222,,,,,,,,,,,,,,,,,,,,,,,,,,,,,,,,,,,,,,/muse/elements/blink
2019-04-22 15:08:26.762,0.8164917538761175,0.9249961391624224,1.385658549608964,0.9920500606148647,0.7518021014715182,0.7033733320017983,0.8393669999771192,0.753727175142231,0.8259493485615972,0.36473011876886,0.6997635921493663,0.8303682010889811,0.7877811319651905,0.08731092216658254,0.2569892092887439,0.6759146626167023,-0.1262097328204398,-0.4219284061681369,-0.4020136181875728,0.1017218330749532,831.6483516483516,804.6520146520147,805.4578754578755,837.6923076923077,1097.179487179487,-0.280212,0.173523,0.955322,4.104767,-9.203949,-1.315918,1,2,1,1,2,55.000000
2019-04-22 15:08:27.761,0.5025589393667175,0.7823798318414007,1.371175516792841,0.8748207907478484,0.2734951251850947,0.4970769404936987,0.7670552188365551,0.5136070164559668,0.4522011213419828,0.3402146547426377,0.6005816076447777,0.7654296249773002,0.830292130629782,0.01776323104677116,0.2526594010826675,0.4166906649284552,0.03114465809140918,-0.3766929478138646,-0.5308303170668152,0.1926621869963487,817.948717948718,799.0109890109891,800.2197802197802,820.7692307692308,770.4029304029305,-0.283630,0.169373,0.950684,4.127197,-8.187103,-1.600037,1,1,1,1,1,55.000000
2019-04-22 15:08:28.762,0.3501071572849578,0.3992819055714897,0.6935594347170677,0.6016979787008598,0.4648781486070997,0.02817703005823661,0.1510751590266645,0.4236551645488438,0.6623794794271626,0.3158617984004866,0.2167426239535906,0.771958920227769,0.7093695927727366,-0.1152412580165946,-0.05269861041987288,0.4520948750787903,-0.153004630475208,-0.557104017540856,-0.5390897228250239,0.01892025257243904,816.3369963369963,803.4432234432235,795.3846153846154,811.0989010989011,770,-0.287292,0.172180,0.951843,3.962708,-8.688049,-2.175751,1,1,1,1,1,55.000000
2019-04-22 15:08:29.110,,,,,,,,,,,,,,,,,,,,,,,,,,,,,,,,,,,,,,/muse/elements/blink
2019-04-22 15:08:29.770,0.4176664026343798,0.5672300441916154,1.000005420000407,0.3742883337056653,0.2032985756414072,0.08301824762069246,0.6756238768648788,0.2840878873321378,0.5108043172026514,0.2864960579027008,0.6372628561511036,0.4817146303605252,0.7042725343016883,-0.1170159993503016,0.02166255059025056,0.6346837451607783,-0.03515728412804816,-0.4766688774719108,-0.4783706840655435,-0.02438569796342782,828.021978021978,810.2930402930403,797.8021978021978,828.8278388278388,933.1868131868132,-0.283020,0.170105,0.953247,4.486084,-9.929199,-0.852356,1,1,1,1,1,55.000000
2019-04-22 15:08:30.407,,,,,,,,,,,,,,,,,,,,,,,,,,,,,,,,,,,,,,/muse/elements/blink
2019-04-22 15:08:30.762,1.226329655959648,0.766782278003226,0.9904789725956645,1.387952634589379,1.254890297699519,0.3236680188060433,0.6453993610298792,1.319178587949099,1.37514536137083,0.3341872754875932,0.6187275736001266,1.126068650781503,0.8596080712751325,0.09751378514503714,-0.03183198795691177,0.7625334902259708,-0.04233854272978669,-0.3884828808045758,-0.4709577772625316,-0.04289849552480271,815.1282051282052,797.3992673992674,794.5787545787546,823.992673992674,872.7472527472528,-0.286316,0.177979,0.954590,4.074860,-8.904877,-1.166382,1,1,1,1,1,55.000000
2019-04-22 15:08:31.761,1.126976130712785,0.6689696450516821,0.8970722693758509,1.22912624981479,1.091597948123028,0.3858978247624147,0.2728675330914962,1.164814384347047,1.37514536137083,0.3280928834585228,0.5136115593928834,1.126580066874759,0.7647507759170631,0.09833301714223339,0.1155293059684127,0.5393619710578091,-0.01699356066579576,-0.4306774098290866,-0.5017151507810406,0.03225982568466378,809.4871794871796,796.5934065934066,797.3992673992674,809.0842490842491,639.4505494505495,-0.279297,0.180237,0.955078,4.702911,-9.046936,-1.614990,1,1,1,1,1,55.000000
2019-04-22 15:08:32.159,,,,,,,,,,,,,,,,,,,,,,,,,,,,,,,,,,,,,,/muse/elements/blink
2019-04-22 15:08:32.761,0.8284369753053282,0.5287933381888631,1.018459120001592,0.8685762102806563,0.5496222811734319,0.3402351219128283,0.4657354807911335,0.5694458891782332,0.7740406691771847,0.4036746476911013,0.4611308586009611,0.5572485115117638,0.5314895807138813,0.09864853415576329,0.03668358964810657,0.2816697712279407,0.02422524863161385,-0.5186890922514215,-0.4571064798845279,0.07318906576125038,827.2161172161173,801.8315018315019,809.0842490842491,829.2307692307693,668.8644688644689,-0.283752,0.179199,0.951965,3.925323,-8.598328,-0.770111,1,1,1,1,1,55.000000
2019-04-22 15:08:33.557,,,,,,,,,,,,,,,,,,,,,,,,,,,,,,,,,,,,,,/muse/elements/blink
2019-04-22 15:08:33.769,0.668851543821302,0.5301484430362117,0.6948888776877694,0.6968948604221354,0.6592037930345199,0.4321263066033723,0.578477136860909,0.7878833590701017,0.9094464410638874,0.3166650035886559,0.5757941017021165,0.8570069616041792,0.5974863070281115,0.01071395070991858,-0.127446488633211,0.5210984360045339,-0.2333330662555772,-0.5561679285542037,-0.3464444241589187,-0.03111387188896118,811.9047619047619,784.5054945054945,818.7545787545788,828.4249084249085,1001.282051282051,-0.281860,0.175903,0.953857,3.708496,-8.284302,-1.824341,1,1,1,1,1,55.000000
2019-04-22 15:08:34.762,0.668851543821302,0.8644544894949971,1.070057039825884,0.6968948604221354,0.6592037930345199,0.4221966138006495,0.6641806741454644,0.7878833590701017,0.9094464410638874,0.3404742425194952,0.7893062219424249,0.8570069616041792,0.5974863070281115,0.06364927063518476,0.2482237126713618,0.5210984360045339,-0.2333330662555772,-0.5133838648756269,-0.5209829911579594,-0.03111387188896118,851.7948717948718,811.5018315018315,808.2783882783883,855.8241758241759,880.8058608058608,-0.282837,0.183960,0.948975,3.678589,-8.381500,-1.839294,1,1,1,1,1,55.000000
2019-04-22 15:08:35.767,1.378878914373168,0.6305984051135973,1.037957875493139,1.509920421855453,0.7371261106061574,0.1728303271835063,0.5689145795381394,0.9687630242514642,1.103519791339174,0.381923161984651,0.8053059717019929,1.139305018234484,0.664898913391799,0.1251084410349329,0.1959378147541193,0.6249216417462496,0.1338218061162025,-0.4667298854922317,-0.720394418941384,0.03898752750550536,815.934065934066,799.8168498168499,801.8315018315019,818.7545787545788,1143.516483516484,-0.274414,0.174927,0.955811,4.112244,-8.972168,-0.770111,1,1,1,1,1,55.000000
2019-04-22 15:08:36.213,,,,,,,,,,,,,,,,,,,,,,,,,,,,,,,,,,,,,,/muse/elements/blink
2019-04-22 15:08:36.775,1.532698599057036,0.9464719000581537,0.9181516308150346,1.453615683867479,0.8942285182216042,0.3891337057899227,0.6491395728789441,0.8471909740949646,1.120909916673846,0.3491654800529841,0.6809257845699443,1.022321483031239,0.8326855444546506,0.1715265893926289,0.2071968675780554,0.7362915792555124,0.2304266321671635,-0.5010517063321213,-0.4805811748901672,0.200472369229633,814.7252747252747,794.981684981685,790.1465201465202,813.5164835164835,915.0549450549451,-0.265564,0.183289,0.956665,4.142151,-8.276825,-2.205658,1,1,1,1,1,55.000000
2019-04-22 15:08:37.768,1.076614807022978,0.9570942374857903,0.7530243204989278,0.8723772760292245,0.9212207492067046,0.4010249983471967,0.4996322637627834,0.3741783089084098,0.7449278679799312,0.32382096069462,0.3734301439466893,0.609809006447539,0.6815006375840137,-0.1193381345727619,0.2651228864352722,0.705870690778172,0.004546981365925616,-0.4420474876276069,-0.5211554459841123,0.1632598471935224,810.2930402930403,790.5494505494506,786.5201465201466,806.2637362637363,764.7619047619048,-0.271545,0.182251,0.952698,4.351501,-9.697418,-2.250519,1,1,1,1,1,55.000000
2019-04-22 15:08:38.642,,,,,,,,,,,,,,,,,,,,,,,,,,,,,,,,,,,,,,/muse/elements/blink
2019-04-22 15:08:38.762,0.9407382277180267,0.2674706456828677,0.4134681803056302,0.7799017155545024,0.7911188658565291,0.0242820288095691,-0.02168400089680414,0.2827316625025574,0.7688753434426618,0.285447715008142,0.3259181289561292,0.7524748751295759,0.6593767873169478,-0.02693686460700088,0.02144669522496761,0.6322492404050024,-0.02719848269297776,-0.5037537447410793,-0.4612807881289056,0.06585650977780282,835.2747252747253,791.3553113553114,801.8315018315019,831.2454212454213,812.7106227106227,-0.268860,0.176147,0.957031,3.491669,-9.061890,-1.188812,1,1,1,1,1,55.000000
2019-04-22 15:08:39.763,0.3182352568596394,0.523694115813955,0.783133326467002,0.4333937645050651,0.5125415421021435,0.09460250772473365,0.4617201718225155,0.3708783835772442,0.6533119610816227,0.3357068673673619,0.4850997114851631,0.591883613438876,0.5235262650292249,0.1274533153814583,0.000317730246201915,0.4210220757352143,-0.1361595881875964,-0.3703308954373331,-0.434803540832724,-0.2520813062029186,813.1135531135532,794.1758241758242,805.4578754578755,818.3516483516484,818.7545787545788,-0.266174,0.177307,0.956177,4.523468,-8.919830,-0.418701,1,1,1,1,1,55.000000
2019-04-22 15:08:40.762,0.6223032847099176,0.2803024936881224,0.3057040687168847,0.7260971104361268,0.7403044165236811,0.2061378720905421,0.05283588196428319,0.7393951264247923,0.9585918718339671,0.4400630325445488,0.3509969206310837,0.8587544891191834,0.7428832727699475,-0.02055282812796576,0.2643721912560631,0.5964923710492905,-0.1055074467320023,-0.4696695697353305,-0.5219402603049021,-0.02825085361266542,813.1135531135532,792.1611721611722,804.6520146520147,815.5311355311355,778.0586080586081,-0.274536,0.180054,0.954834,4.426270,-9.592743,-1.727142,1,1,1,1,1,55.000000
2019-04-22 15:08:41.119,,,,,,,,,,,,,,,,,,,,,,,,,,,,,,,,,,,,,,/muse/elements/blink
2019-04-22 15:08:41.705,,,,,,,,,,,,,,,,,,,,,,,,,,,,,,,,,,,,,,/muse/elements/blink
2019-04-22 15:08:41.762,1.044845714452442,0.2567865576411121,1.128328883523815,1.283207460913986,1.003716846620531,0.240419701368129,0.7500116405671565,1.129391102795376,1.363673974199853,0.31491085985322,0.5975926992957568,1.090103257218947,0.9216901667461483,0.0005321761184448312,0.1950400955177103,0.8001092901393962,-0.01480150345944848,-0.476858856953896,-0.4820829140435001,0.07063970453359097,839.7069597069598,794.1758241758242,812.3076923076924,853.4065934065934,940.0366300366301,-0.273438,0.176270,0.951050,3.626251,-7.424469,-2.071075,1,1,1,1,1,55.000000
2019-04-22 15:08:42.761,1.241214670376664,0.5257513591078683,1.217860354587313,1.585860385594701,1.084754549365911,0.507637003305019,0.8479275334210761,1.27263032425782,1.327414587198616,0.507971565795427,0.8540250522910843,0.9635190529347262,0.9465783946719916,0.1747270846053483,0.1865522271127515,0.9725739777047422,0.1453826313168229,-0.3548140597266894,-0.2618251009171695,0.08914540214099394,812.7106227106227,804.2490842490843,798.6080586080586,814.7252747252747,886.0439560439561,-0.268494,0.174683,0.956604,3.872986,-9.600220,-1.689758,1,1,1,1,1,55.000000
2019-04-22 15:08:43.761,0.8993099726885104,0.3031886808781452,0.9749708517294052,1.091080977722539,0.275966465667337,0.1516981035299031,0.5686028893033436,0.8045355560490355,0.676655177992129,0.4251896605592864,0.8553067078498255,0.8433906954965434,0.5593763765150481,0.1832180642726903,0.1777311834552918,0.5214959637015241,-0.01110547380339412,-0.4613716170210397,-0.3666922978428188,-0.009506896808661989,817.948717948718,803.8461538461539,809.8901098901099,809.8901098901099,537.5091575091575,-0.254944,0.177612,0.959473,4.358978,-8.045044,-2.048645,1,1,1,1,1,55.000000
2019-04-22 15:08:44.041,,,,,,,,,,,,,,,,,,,,,,,,,,,,,,,,,,,,,,/muse/elements/blink
2019-04-22 15:08:44.762,0.3826355058491253,0.7385158255761771,1.102468378132668,0.8421637467804842,-0.08267164051621412,0.2357697696884123,0.7174184585927944,0.6266108846203401,0.5869422930649283,0.0876358644771679,0.3986531872110598,0.6704325150407113,0.6778422467843674,0.02387610569363935,0.0887399096443168,0.5908898751521852,-0.0280186916051262,-0.4731360886024641,-0.5011699358072964,0.03174219222834699,812.3076923076924,802.6373626373627,791.7582417582418,823.1868131868132,1089.92673992674,-0.258728,0.172791,0.959045,4.000092,-8.329163,-0.710297,1,1,1,1,1,55.000000
2019-04-22 15:08:45.762,0.6018602043258728,0.8494946646713247,1.108893500275116,0.6018480649990593,0.3950482221839208,0.3402556221780773,0.7138055976264732,0.3466100123329661,0.8036850243220096,0.3834246930592183,0.7083126482319214,0.4997124684106687,0.494633023748086,-0.1124208089711275,0.1622674315244864,0.2360327200361683,0.02190671643927803,-0.4988446655479499,-0.3428322741322813,0.02252809919439655,816.7399267399268,804.2490842490843,794.1758241758242,797.3992673992674,827.6190476190476,-0.256592,0.178711,0.961426,4.486084,-8.411407,-1.637421,1,1,1,1,1,55.000000
2019-04-22 15:08:46.144,,,,,,,,,,,,,,,,,,,,,,,,,,,,,,,,,,,,,,/muse/elements/blink
2019-04-22 15:08:46.761,0.5685542610204962,0.574205857241377,1.147819882254101,0.63784243456348,0.3261151200259911,0.2495419259020765,0.9475169716736417,0.3498940287302813,0.8464657803949769,0.5908281506188693,0.9410370834714769,0.5684290350669752,0.5710854930463586,0.08354974365810669,0.1515103772061995,0.1948382737724404,0.1042727422450073,-0.54876540968638,-0.3589246921738682,-0.05599064019959146,845.3479853479854,807.0695970695971,791.7582417582418,841.7216117216118,880.8058608058608,-0.264893,0.176147,0.957947,4.157104,-8.545990,-0.927124,1,1,1,1,1,55.000000
2019-04-22 15:08:47.379,,,,,,,,,,,,,,,,,,,,,,,,,,,,,,,,,,,,,,/muse/elements/blink
2019-04-22 15:08:47.762,0.5488053120552205,1.03739306714885,1.505769614537835,1.274693825468133,1.014043165142538,0.5337940884948786,1.243104449272447,1.237294635554598,1.178580097805058,0.685186400373156,1.092958471630829,1.271508919104493,0.7684900540232733,0.1934192356063238,0.2675806047914546,0.9718932340763512,0.1037199532322002,-0.5282849084973049,-0.4214306242368109,0.119521890103327,810.2930402930403,801.025641025641,800.6227106227107,820.7692307692308,1041.575091575092,-0.253967,0.179565,0.958374,4.403839,-8.942261,-1.600037,1,1,1,1,1,55.000000
2019-04-22 15:08:48.405,,,,,,,,,,,,,,,,,,,,,,,,,,,,,,,,,,,,,,/muse/elements/blink
2019-04-22 15:08:48.762,0.7150210209921888,1.135587130536386,1.592931624312405,1.347076464169173,1.134228549026295,0.5228168479523935,1.089806827711256,1.32383954769631,1.166936403269473,0.6340570826654576,1.086636184191822,1.271508919104493,0.9118077505321532,0.2231420877304939,0.1750213518276794,0.8006280488504878,0.1220876168599332,-0.4894406696653931,-0.4835124599152868,0.09938104595010837,815.1282051282052,793.3699633699634,804.2490842490843,814.7252747252747,821.5750915750916,-0.267700,0.181274,0.957947,4.613190,-8.560944,-1.525269,1,1,1,1,1,55.000000
2019-04-22 15:08:49.718,,,,,,,,,,,,,,,,,,,,,,,,,,,,,,,,,,,,,,/muse/elements/blink
2019-04-22 15:08:49.762,0.5940457135672744,0.4843345326389837,0.9759111116265619,0.9311368998548153,0.8432107719602471,0.1181300729598435,0.5896534799528761,1.079891216620663,0.5353201240160961,0.2588312878070102,0.8257604145616991,0.6011870435307148,0.8815115435828316,-0.1490191363587242,0.1825511621242765,0.5518249361724082,0.1593758030127001,-0.5156453326679398,-0.5060698455582147,0.1429189607520309,819.5604395604396,771.6117216117216,877.5824175824176,856.2271062271062,561.6849816849817,-0.265808,0.176392,0.957214,4.059906,-8.553467,-1.443024,1,1,1,1,1,55.000000
2019-04-22 15:08:50.762,0.5940457135672744,0.9828966777314952,1.44182467998931,0.9311368998548153,0.8432107719602471,0.6229197474578494,0.9119648410907241,1.079891216620663,0.5353201240160961,0.391946921012785,1.16592605419185,0.6011870435307148,0.8815115435828316,-0.1701952987654441,0.3083808635898371,0.5518249361724082,0.1593758030127001,-0.6410354288845221,-0.2421769771181276,0.1429189607520309,822.3809523809524,805.4578754578755,772.014652014652,832.4542124542124,1111.282051282051,-0.271729,0.177429,0.955383,4.239349,-8.807678,-1.786957,1,1,1,1,1,55.000000
2019-04-22 15:08:51.575,,,,,,,,,,,,,,,,,,,,,,,,,,,,,,,,,,,,,,/muse/elements/blink
2019-04-22 15:08:51.762,1.246571175451926,0.5876843156803934,1.164000642114517,1.096639817906888,1.095004944538976,0.3217423560188553,0.7288246847374121,0.872646414169725,1.023959431387564,0.6459509759191793,1.048166294464445,1.08491206376097,0.7030132773693104,0.003723574262721137,0.08545493613596807,0.7421123821436852,0.09612434248779295,-0.5107321773691282,-0.4225755174287653,0.1645105692479679,818.7545787545788,801.4285714285714,788.9377289377289,818.7545787545788,1003.699633699634,-0.272888,0.175354,0.957764,3.506622,-8.007660,-2.168274,1,1,1,1,1,55.000000
2019-04-22 15:08:52.761,1.336506359096981,0.5244630688401484,0.8340741714103912,1.18412543185981,0.8223578524558937,0.4569277927389856,0.6574206585695604,0.6521973368763352,0.9999271278890807,0.7928738562671188,0.8740443845257728,0.8129837145662981,0.7947440587297102,0.02314860402048377,0.1224365910534227,0.7177443143886203,0.01820512355560822,-0.433868298737523,-0.3986116996303006,0.1360951450693081,824.7985347985348,806.6666666666667,807.8754578754579,824.7985347985348,709.1575091575091,-0.276733,0.169067,0.959045,4.059906,-7.215118,-2.871094,1,1,1,1,1,55.000000
2019-04-22 15:08:53.565,,,,,,,,,,,,,,,,,,,,,,,,,,,,,,,,,,,,,,/muse/elements/blink
2019-04-22 15:08:53.762,1.228654912879903,0.4606826291275589,0.8634274402633044,1.067060209640125,0.2622171174108537,-0.007378157170261262,0.4042899112071409,0.5244814027514614,0.8570944622888782,0.461244994382229,0.6552298467747081,0.9985097921108188,0.6376512438489594,0.1556729147263201,0.08107233298939374,0.6129397065337078,0.1214380343504833,-0.4197221582308674,-0.4272410718315587,0.1638443122912828,782.4908424908425,790.952380952381,799.4139194139194,804.6520146520147,1116.117216117216,-0.277588,0.167664,0.956421,3.925323,-8.770294,-2.011261,1,1,1,1,1,55.000000
2019-04-22 15:08:54.780,1.221526279585857,0.7431409094889179,0.475307544264173,0.6936127097831384,0.3568687671410635,0.417283745317496,0.1507640702485745,0.438681329347562,0.6549886919823376,0.3961430392105015,0.1050971985237208,0.8376163102131662,0.6240251570731848,0.1660731869718988,0.08760544905610385,0.2751810665481515,0.05864427240442623,-0.5132301492155105,-0.3391310229014124,0.03237421652409033,826.007326007326,796.1904761904763,799.8168498168499,825.6043956043957,650.7326007326008,-0.279419,0.166138,0.960083,4.052429,-9.009552,-0.388794,1,1,1,1,1,55.000000
2019-04-22 15:08:55.761,0.6206454553211725,0.3319713494187824,0.3637715202453827,0.6498930221828988,0.587391326625284,0.1042371946028196,-0.07536025018334455,0.409324446664597,0.9787822851364317,0.3918356605006758,0.2756311088197083,0.8950587923463198,0.5383712378914329,0.1331915423893757,-0.01840594431649247,0.2985645775621221,-0.1722576964591096,-0.4759635739386235,-0.4879298030658072,0.07611446936271876,804.6520146520147,797.8021978021978,813.5164835164835,805.4578754578755,633.8095238095239,-0.278320,0.170593,0.957031,4.231873,-9.226379,-1.413116,1,1,1,1,1,55.000000
2019-04-22 15:08:55.986,,,,,,,,,,,,,,,,,,,,,,,,,,,,,,,,,,,,,,/muse/elements/blink
2019-04-22 15:08:56.761,0.7204501713633156,0.5066032636517822,0.6575311898262298,0.6705897078102143,0.6285114506475982,0.452050826521787,0.6506832577080474,0.3319090140661236,0.8527834794718224,0.1786589661729023,0.5397035413892627,0.7356930067811938,0.6627216716007404,0.104309060027594,0.1024642953995403,0.4320216723505473,-0.07049277447454379,-0.2875326518600737,-0.433399184279741,-0.01990970292156714,816.3369963369963,807.4725274725275,807.8754578754579,824.3956043956044,1026.666666666667,-0.278625,0.172974,0.955505,4.246826,-9.084320,-0.628052,1,1,1,1,1,55.000000
2019-04-22 15:08:57.762,0.8586984990759188,0.3510488626085281,0.6420225669224846,0.8766620231321874,0.8224436507679695,0.4854678266320186,0.6282574477316356,0.721497051440249,0.6899737328791242,0.1656120592773118,0.4956461028381622,0.7329286921689381,0.6457335431415693,0.003553288076617806,0.09334168806916227,0.2787646939797586,0.03352422448237079,-0.3021330271604314,-0.5629018722194886,0.1099661706302313,820.7692307692308,803.8461538461539,813.919413919414,825.6043956043957,902.967032967033,-0.289368,0.167542,0.954346,4.560852,-8.217010,-1.188812,1,1,1,1,1,55.000000
2019-04-22 15:08:58.230,,,,,,,,,,,,,,,,,,,,,,,,,,,,,,,,,,,,,,/muse/elements/blink
2019-04-22 15:08:58.761,0.6891176785130297,0.5148690206897807,0.5378975073204471,0.7345245810985538,0.7072401411526523,0.5182137808462732,0.5346248763267785,0.6775990869440529,0.6456705291000612,0.3303139765892705,0.5660025444901641,0.7439249954674086,0.5612133199663284,-0.0190484607748806,0.06320021521229008,0.2391043029848848,-0.008273212136985036,-0.4796859261015695,-0.5213932616721763,0.07087137316896706,812.7106227106227,809.8901098901099,808.2783882783883,813.919413919414,690.6227106227107,-0.280334,0.169983,0.957886,3.790741,-9.203949,-0.590668,1,1,1,1,1,55.000000
2019-04-22 15:08:59.767,0.2267221934407853,0.5617664227484098,0.6169397581362069,0.7163984714570288,0.5165548172436515,0.4633091709751955,0.5726090162794363,0.4909908375226904,1.008507997884672,0.3687742071659488,0.5654013498906059,0.7920484063024241,0.6387075185924841,0.1293771104526736,0.01703280055380183,0.4988109197866411,0.07439592862792524,-0.4284010700533107,-0.4678591273024887,-0.03741662946838815,807.8754578754579,796.5934065934066,808.6813186813187,819.5604395604396,823.992673992674,-0.281738,0.172241,0.955566,3.858032,-8.575897,-2.138367,1,1,1,1,1,60.000000
2019-04-22 15:09:00.612,,,,,,,,,,,,,,,,,,,,,,,,,,,,,,,,,,,,,,/muse/elements/blink
2019-04-22 15:09:00.762,0.2320198293143022,0.3110942672507769,0.4856580163287474,0.4272712704817697,0.6480836410823925,0.00085249134023995,0.2408651689071811,0.6856849036027132,0.9281910561619472,0.2507305707203147,0.3950262147460806,0.8549357453491407,0.6192154804954076,0.1191726402904385,-0.04949517029325576,0.4813553064701879,-0.06740123955807271,-0.5488707989020398,-0.4848549103607286,-0.1435918456304871,822.3809523809524,799.0109890109891,786.5201465201466,825.6043956043957,749.047619047619,-0.280579,0.171387,0.953857,4.261780,-8.860016,-1.114044,1,1,1,1,1,60.000000
2019-04-22 15:09:01.763,0.4000683828591421,0.3822166849812205,1.131235565058981,0.3470998946250677,0.7130690903232354,0.2670629134560898,0.6814397901328505,0.5805928086410396,0.8978614884182418,0.3612562603879164,0.5730061756009689,0.7984890528276859,0.6095738630716588,0.01075388366732253,0.1214791150562475,0.470273213417002,-0.1907370339524572,-0.5501722282608639,-0.5468287682273556,-0.1019419242298932,819.5604395604396,801.8315018315019,791.7582417582418,805.4578754578755,768.7912087912088,-0.283325,0.173767,0.953552,4.987030,-9.757233,-1.143951,1,1,1,1,1,60.000000
2019-04-22 15:09:02.768,0.8951674498762195,-0.137624320332102,0.7591077778081096,1.076720821257235,0.5397170542587274,-0.005698724743049304,0.3424657822561202,0.8032049745645196,1.220552409822646,0.3465603507011301,0.4416777557579215,1.117814744418797,0.6713529676333416,0.00628432910288259,-0.06274816635584884,0.5355839974890062,0.004726891360049432,-0.4979480839463681,-0.424861627781726,0.01305931683061475,807.0695970695971,800.2197802197802,806.6666666666667,822.3809523809524,1135.860805860806,-0.278870,0.170654,0.953552,4.740295,-7.813263,-2.093506,1,1,1,1,1,60.000000
2019-04-22 15:09:03.762,1.01734306298439,0.06824609778357187,0.8422583187598186,1.120383798307421,0.5077582303721067,-0.1259031773014178,0.3494600883028182,0.8833286746611443,1.16308976653176,0.2776339236535658,0.5184871766892337,1.050425486854871,0.6218029373308689,-0.05731482641824062,-0.01666636259633255,0.5453915017342668,0.0393424881984674,-0.3963457393427846,-0.412234256457555,0.02218009343820292,815.1282051282052,802.6373626373627,808.2783882783883,818.7545787545788,672.4908424908425,-0.287537,0.178528,0.951477,3.297272,-8.695526,-1.899109,1,1,1,1,1,60.000000
2019-04-22 15:09:04.632,,,,,,,,,,,,,,,,,,,,,,,,,,,,,,,,,,,,,,/muse/elements/blink
2019-04-22 15:09:04.762,1.118762635888632,0.2274142478349521,0.8081052156151877,1.121451969573878,0.5891751540270025,0.04579054364925085,0.3207675581674545,0.7585307329308852,0.6620255402830861,0.1938137030528805,0.4478345251924616,0.8017526365671224,0.6242133627052339,-0.09193428995217873,0.08994640285526263,0.6804811536218157,-0.09623399834577513,-0.4622721141653425,-0.4884241641583657,0.01298361468802881,840.5128205128206,804.6520146520147,815.934065934066,836.4835164835165,716.4102564102565,-0.291016,0.181458,0.947266,3.790741,-8.508606,-2.444916,1,1,1,1,1,60.000000
2019-04-22 15:09:05.244,,,,,,,,,,,,,,,,,,,,,,,,,,,,,,,,,,,,,,/muse/elements/blink
2019-04-22 15:09:05.762,0.9047458825840879,0.7864429191609864,0.8193628351777912,0.962843985179104,0.2983409925986123,0.7006585323469562,0.6503392588420509,0.261846409964149,0.608750837123616,0.3040614857655896,0.6784445822974937,0.6007548814429665,0.5879064579569737,-0.04049838125835863,-0.05883413439199247,0.6867303090745037,-0.1892489899472891,-0.3939852805387372,-0.2318924043433171,-0.1146601302881052,809.4871794871796,799.4139194139194,814.3223443223443,831.2454212454213,1123.369963369963,-0.281982,0.180115,0.954590,4.164581,-8.119812,-2.347717,1,1,1,1,1,60.000000
2019-04-22 15:09:06.471,,,,,,,,,,,,,,,,,,,,,,,,,,,,,,,,,,,,,,/muse/elements/blink
2019-04-22 15:09:06.762,0.9047458825840879,0.5038052636086894,1.019888993858194,0.962843985179104,0.2983409925986123,0.6014974180324861,0.7910787757490619,0.261846409964149,0.608750837123616,0.5953771001185479,0.7118573517750171,0.6007548814429665,0.5879064579569737,-0.1464648793941331,0.1668053347131197,0.6867303090745037,-0.1892489899472891,-0.3445849841239664,-0.2667778084385358,-0.1146601302881052,826.007326007326,817.5457875457876,787.7289377289378,810.6959706959707,651.1355311355312,-0.279114,0.171265,0.957031,3.955231,-8.194580,-1.973877,1,1,1,1,1,60.000000
2019-04-22 15:09:07.470,,,,,,,,,,,,,,,,,,,,,,,,,,,,,,,,,,,,,,/muse/elements/blink
2019-04-22 15:09:07.761,0.9047458825840879,0.9376168783879364,0.9735565209834048,0.962843985179104,0.2983409925986123,0.577759430549012,0.6826988790327091,0.261846409964149,0.608750837123616,0.6030601348967771,0.653014759932219,0.6007548814429665,0.5879064579569737,0.114829676613805,0.06000805366922262,0.6867303090745037,-0.1892489899472891,-0.3646887657231878,-0.4088631426311731,-0.1146601302881052,830.4395604395604,799.0109890109891,796.5934065934066,830.0366300366301,762.3443223443223,-0.308289,0.172424,0.954468,2.646790,-9.704895,-2.856140,1,2,1,1,2,60.000000
2019-04-22 15:09:08.418,,,,,,,,,,,,,,,,,,,,,,,,,,,,,,,,,,,,,,/muse/elements/blink
2019-04-22 15:09:08.761,0.9047458825840879,0.9885777857080846,0.8995948437024602,0.962843985179104,0.2983409925986123,0.5239246325938353,0.6054528966567855,0.261846409964149,0.608750837123616,0.3295896690477031,0.6633909023677307,0.6007548814429665,0.5879064579569737,0.09572154185547595,0.06476395999431563,0.6867303090745037,-0.1892489899472891,-0.4559295124188653,-0.474563457737202,-0.1146601302881052,805.0549450549451,799.4139194139194,808.6813186813187,805.8608058608058,1165.677655677656,-0.254761,0.146912,0.967834,3.858032,-9.121704,-1.577606,1,2,1,1,2,60.000000
2019-04-22 15:09:08.806,,,,,,,,,,,,,,,,,,,,,,,,,,,,,,,,,,,,,,/muse/elements/blink
2019-04-22 15:09:09.735,,,,,,,,,,,,,,,,,,,,,,,,,,,,,,,,,,,,,,/muse/elements/blink
2019-04-22 15:09:09.769,0.9047458825840879,0.5405623542186493,0.7718547175680046,0.962843985179104,0.2983409925986123,0.2285376332864469,0.5156218711375972,0.261846409964149,0.608750837123616,0.1395396644363421,0.4818350738475348,0.6007548814429665,0.5879064579569737,0.1409278518797142,0.1053492482402161,0.6867303090745037,-0.1892489899472891,-0.5129065450600003,-0.5277197227213725,-0.1146601302881052,844.1391941391942,791.7582417582418,805.4578754578755,842.9304029304029,817.1428571428571,-0.263855,0.152588,0.962280,4.508514,-7.237549,-2.332764,1,2,1,1,2,55.000000
2019-04-22 15:09:10.762,0.9047458825840879,0.6285228556684751,0.6294319432622881,0.962843985179104,0.2983409925986123,0.3745876680864231,0.2577175046351478,0.261846409964149,0.608750837123616,0.5410853963987641,0.5361757782229419,0.6007548814429665,0.5879064579569737,0.1479676605208147,0.03903150426064913,0.6867303090745037,-0.1892489899472891,-0.435485068344919,-0.54762246935673,-0.1146601302881052,812.3076923076924,805.8608058608058,799.4139194139194,805.0549450549451,826.007326007326,-0.262207,0.158813,0.950073,3.357086,-8.112335,-1.689758,1,2,1,1,2,55.000000
2019-04-22 15:09:11.469,,,,,,,,,,,,,,,,,,,,,,,,,,,,,,,,,,,,,,/muse/elements/blink
2019-04-22 15:09:11.762,0.1880332303604912,0.3739269779389572,0.6470921577167766,0.4038391889996888,0.4468907774365642,0.1223270487303803,0.1808682025249389,0.400816059899641,0.8904815380870165,0.5910683887087717,0.5356610215770944,0.9440582229666468,0.682347979558022,0.1787177242627936,0.1575693204385861,0.7389326452247701,0.02575828461742128,-0.3346234171508043,-0.3226457934376862,0.06050175138163383,829.2307692307693,807.4725274725275,819.5604395604396,833.6630036630037,1004.505494505495,-0.245117,0.145142,0.964050,3.581390,-9.346008,-1.300964,1,1,1,1,1,55.000000
2019-04-22 15:09:12.604,,,,,,,,,,,,,,,,,,,,,,,,,,,,,,,,,,,,,,/muse/elements/blink
2019-04-22 15:09:12.762,0.2428438039270099,0.2888132719027955,0.5169624458666888,0.3600147822303824,0.4832730610374226,0.0110226236817379,0.4629555058056951,0.532948047039474,0.8546650934921005,0.2450932932937901,0.4017000191161145,0.8625019885445492,0.6374093698001132,-0.01255568822012838,0.03493664692274467,0.6934157773049805,0.03422713778941972,-0.5339628344202307,-0.3386420583574422,0.09197250848055637,817.5457875457876,789.7435897435897,793.3699633699634,822.3809523809524,660.4029304029305,-0.240662,0.145020,0.967041,4.411316,-8.276825,-0.478516,1,1,1,1,1,55.000000
2019-04-22 15:09:13.762,0.2428438039270099,0.3409662729264979,0.8671082938590852,0.3600147822303824,0.4832730610374226,0.002814455987157485,0.5258295347149875,0.532948047039474,0.8546650934921005,0.334419140077729,0.511640359262189,0.8625019885445492,0.6374093698001132,0.1016368229010914,-0.03645412493460754,0.6934157773049805,0.03422713778941972,-0.3928189453011228,-0.4892452729269877,0.09197250848055637,809.4871794871796,805.4578754578755,787.3260073260074,809.0842490842491,662.8205128205128,-0.256775,0.140869,0.965271,3.409424,-7.977753,-1.891632,1,1,1,1,1,55.000000
2019-04-22 15:09:14.537,,,,,,,,,,,,,,,,,,,,,,,,,,,,,,,,,,,,,,/muse/elements/blink
2019-04-22 15:09:14.767,0.793638839566192,0.4470471490429871,0.7561396070954117,1.102268124033257,0.660496103292515,0.3302257704096204,0.5067770906572967,0.66024657268943,0.9031724394941149,0.4960106641546562,0.5105755511809519,0.9222268558030825,0.6737883450488473,0.1768718657244793,0.00542700766178834,0.4473439548497272,-0.009755201236685208,-0.3763332376747579,-0.4499116256085737,0.06023677606491962,828.8278388278388,801.8315018315019,802.6373626373627,818.7545787545788,912.6373626373627,-0.249878,0.155090,0.969055,5.689850,-6.998291,-0.433655,1,1,1,1,1,55.000000
2019-04-22 15:09:15.761,0.8873735572209259,0.7360319951908012,0.7108828932344613,1.055073023653403,0.4929129184737145,0.2691246073209309,0.4782045149999932,0.4266262034223509,1.225202460226409,0.4687114578766072,0.4445897843304439,0.6898253526215695,0.6364268334861963,0.1345208345302759,0.02954270101929262,0.5279915429870665,0.2024846099387278,-0.3672422940750156,-0.3505168198507572,0.1667492071123119,811.5018315018315,799.4139194139194,817.1428571428571,822.7838827838829,799.0109890109891,-0.251404,0.163269,0.963867,4.254303,-8.987122,-1.914062,1,1,1,1,1,55.000000
2019-04-22 15:09:16.761,0.6494782258170614,0.1772439113376894,0.8261992681443925,0.6852360637373753,0.4090832884249168,-0.1462831964910992,0.5601386015469382,0.5258731284825704,1.245551030352133,0.2776052347662554,0.5193745622954341,0.9632043864102332,0.6549104009675778,0.07332351439954474,0.3200457396049091,0.6788746705927052,0.1789749467210602,-0.2988994137905917,-0.4185362807604406,0.2363695909557294,825.6043956043957,807.4725274725275,816.3369963369963,831.2454212454213,812.7106227106227,-0.247925,0.163086,0.958862,4.157104,-7.402039,-2.616882,1,1,1,1,1,55.000000
2019-04-22 15:09:17.778,0.5328923186637601,0.2681600974535687,0.8320497679461557,0.6602561030026138,0.5519700473397537,0.1609053434425666,0.3541472148711873,0.6199387687633048,0.9100864129191918,0.2759744138424647,0.6535889383530249,0.893123334013293,0.5456181410760944,-0.04966132378170652,0.1433012095571756,0.5612068546926174,0.0993457979039114,-0.3091421698660998,-0.458104971294664,0.2113828121512424,865.4945054945056,794.1758241758242,807.4725274725275,877.5824175824176,895.7142857142858,-0.248596,0.161804,0.955872,3.671112,-8.074951,-2.048645,1,1,1,1,1,55.000000
2019-04-22 15:09:17.859,,,,,,,,,,,,,,,,,,,,,,,,,,,,,,,,,,,,,,/muse/elements/blink
2019-04-22 15:09:18.762,0.6422055591334254,0.8336378399026723,1.30430280973801,0.6658011107254943,0.725892771776553,0.5586684980380431,0.5500215857078353,0.6895334858741624,0.8362474853331203,0.399577687698195,0.86520416488689,0.8055377395976815,0.5080703936673885,-0.07204512387496791,0.2647159807227971,0.3094483572031994,0.03583444643978918,-0.4325686349003141,-0.4593543477580143,0.02879833134716434,799.0109890109891,807.8754578754579,800.2197802197802,799.0109890109891,659.5970695970697,-0.247192,0.166687,0.964783,4.605713,-7.708588,-2.213135,1,1,1,1,1,55.000000
2019-04-22 15:09:19.188,,,,,,,,,,,,,,,,,,,,,,,,,,,,,,,,,,,,,,/muse/elements/blink
2019-04-22 15:09:19.683,,,,,,,,,,,,,,,,,,,,,,,,,,,,,,,,,,,,,,/muse/elements/blink
2019-04-22 15:09:19.762,0.6260843086645027,0.776000814386381,0.8849052367186578,0.6759120469693938,0.5613521499001598,0.6669721995212183,0.7877484129994413,0.6415854076179478,0.8472495489159479,0.5097754252724092,0.8853198183979939,0.8302528026188404,0.5166167444030961,0.08471074317043586,0.2483855012812429,0.5388543327754249,0.03014617876322975,-0.3276920100953246,-0.4979490867814148,-0.006696889993797379,849.3772893772895,805.4578754578755,810.2930402930403,845.7509157509157,862.2710622710623,-0.257202,0.164734,0.958252,3.805695,-8.045044,-1.861725,1,1,1,1,1,50.000000
2019-04-22 15:09:20.617,,,,,,,,,,,,,,,,,,,,,,,,,,,,,,,,,,,,,,/muse/elements/blink
2019-04-22 15:09:20.770,0.6260843086645027,1.104905095091329,1.246329089935893,0.6759120469693938,0.5613521499001598,0.8147595962237811,0.9966651190384536,0.6415854076179478,0.8472495489159479,0.544587698087022,0.9368041853670459,0.8302528026188404,0.5166167444030961,0.2251142823086879,0.2495348232939855,0.5388543327754249,0.03014617876322975,-0.2545315382474969,-0.3728925950875289,-0.006696889993797379,827.2161172161173,815.1282051282052,758.7179487179487,803.8461538461539,914.2490842490843,-0.257751,0.162964,0.961731,3.917847,-8.411407,-0.575714,1,2,1,1,2,50.000000
2019-04-22 15:09:21.523,,,,,,,,,,,,,,,,,,,,,,,,,,,,,,,,,,,,,,/muse/elements/blink
2019-04-22 15:09:21.762,0.6260843086645027,1.128145733588669,1.541502047184208,0.6759120469693938,0.5613521499001598,0.7307317081301257,0.9927557155870943,0.6415854076179478,0.8472495489159479,0.4507457237464521,0.872344084367578,0.8302528026188404,0.5166167444030961,0.03313308096686608,0.2427049767236709,0.5388543327754249,0.03014617876322975,-0.3271236644503257,-0.3251345979987507,-0.006696889993797379,818.7545787545788,794.981684981685,795.3846153846154,815.934065934066,956.959706959707,-0.249023,0.163696,0.966431,4.934692,-8.605804,-1.487885,1,2,1,1,2,50.000000
2019-04-22 15:09:22.293,,,,,,,,,,,,,,,,,,,,,,,,,,,,,,,,,,,,,,/muse/elements/blink
2019-04-22 15:09:22.762,0.6260843086645027,1.04024410093139,1.502378788589674,0.6759120469693938,0.5613521499001598,0.6905605617022397,0.9696163960910219,0.6415854076179478,0.8472495489159479,0.4767909296137418,0.7922073313898274,0.8302528026188404,0.5166167444030961,0.0280532151445437,0.1112806553555765,0.5388543327754249,0.03014617876322975,-0.3521008509173208,-0.4208891784502184,-0.006696889993797379,818.3516483516484,806.6666666666667,798.2051282051282,815.5311355311355,704.7252747252747,-0.261169,0.160339,0.963196,3.955231,-8.359070,-1.196289,1,2,1,1,2,50.000000
2019-04-22 15:09:23.762,0.5390922795614861,0.5763546760613847,0.7576395696955065,0.588933871165456,0.2633080479612039,0.5232893836398939,0.5731463859593264,0.5287148071022544,0.6648368361749909,0.4050402641809584,0.7544137547179652,0.7768019025610263,0.7444429853400527,0.1050950462906953,0.05002906655104028,0.4823701794749115,-0.03840949435358017,-0.3864830633255207,-0.503311085504996,0.04196067207666766,816.3369963369963,808.6813186813187,797.3992673992674,817.5457875457876,597.5457875457876,-0.251282,0.166687,0.959900,4.134674,-9.181519,-0.994415,1,1,1,1,1,50.000000
2019-04-22 15:09:24.546,,,,,,,,,,,,,,,,,,,,,,,,,,,,,,,,,,,,,,/muse/elements/blink
2019-04-22 15:09:24.769,1.056966100741119,0.06539481770120392,0.4612496496906948,1.173906325599422,0.7002353967273404,-0.01546414509500683,0.1029959765022423,1.031381990531869,1.203930016095246,0.1388863376822631,0.3457762242791065,1.237922107506194,0.8323507055523187,-0.07531389940457092,-0.06280878659828872,0.5468900216809003,0.03844011230681511,-0.3998354694629464,-0.4732397555445787,0.1628952653420688,828.021978021978,814.7252747252747,813.5164835164835,842.9304029304029,1031.501831501831,-0.254211,0.165222,0.965088,4.358978,-9.024506,-2.168274,1,1,1,1,1,50.000000
2019-04-22 15:09:25.062,,,,,,,,,,,,,,,,,,,,,,,,,,,,,,,,,,,,,,/muse/elements/blink
2019-04-22 15:09:25.280,,,,,,,,,,,,,,,,,,,,,,,,,,,,,,,,,,,,,,/muse/elements/blink
2019-04-22 15:09:25.761,1.305728920081238,0.1587019773386254,0.7125617137201679,1.391436007781645,1.036931148092484,0.2906654609673737,0.8314755561056923,1.157936760649394,1.188001210713606,0.2361950251402813,0.8567569007351817,1.169084303884465,0.8139979527523873,0.129790089052259,-0.002169787024951191,0.6511107520895522,-0.003199541800348096,-0.2141959641147955,-0.1810921983104895,0.1656036698892566,824.3956043956044,813.1135531135532,811.9047619047619,814.3223443223443,686.5934065934066,-0.252747,0.159790,0.963989,4.044952,-8.486176,-1.076660,1,1,1,1,1,50.000000
2019-04-22 15:09:26.199,,,,,,,,,,,,,,,,,,,,,,,,,,,,,,,,,,,,,,/muse/elements/blink
2019-04-22 15:09:26.761,1.438871649378249,0.5130911364367189,0.8752053776521598,1.539981750833121,1.276544115755466,0.3276084476353943,1.07197062733864,1.346209751276434,1.177306012480566,0.2538532102374935,0.8575784261605109,1.149408163824117,0.8913389188276308,0.05328282515890453,0.1160675564449751,0.7248292322381612,0.01114936655848889,-0.2684628988098794,-0.1541129511708655,0.2197692882978086,817.948717948718,809.8901098901099,810.2930402930403,819.5604395604396,589.8901098901099,-0.263000,0.160034,0.960449,3.970184,-8.493652,-1.525269,1,1,1,1,1,50.000000
2019-04-22 15:09:27.316,,,,,,,,,,,,,,,,,,,,,,,,,,,,,,,,,,,,,,/muse/elements/blink
2019-04-22 15:09:27.766,1.050656025118141,0.7417721184506882,0.9677758978539868,1.159297840895424,1.028434726741582,0.06085689442411939,0.5372690670889484,0.9937562553751026,1.033859087810023,0.3282715263344619,0.7387011656128514,0.9862252335669518,0.6186929315346605,0.1083558268899139,0.04611697940416785,0.5221416314067199,-0.09676938556861212,-0.3976601112003531,-0.3122577387928658,0.07691438397727346,830.8424908424909,806.2637362637363,812.7106227106227,838.4981684981685,1055.274725274725,-0.261780,0.162720,0.961731,4.216919,-7.618866,-0.844879,1,1,1,1,1,50.000000
2019-04-22 15:09:28.396,,,,,,,,,,,,,,,,,,,,,,,,,,,,,,,,,,,,,,/muse/elements/blink
2019-04-22 15:09:28.761,0.5663490830514385,0.7077978960836931,1.200080758196449,0.8038942787630723,0.6497182400880042,-0.007733533040792881,0.6869391745271907,0.710188526097846,0.8441767447656726,0.3811891554286344,0.5467606041283574,0.9095851095149925,0.5698683282827688,0.1239718450917745,0.005054894191132874,0.4634761911874295,-0.1500885175822181,-0.3560256410844489,-0.5035499099187497,0.04283207583836946,800.2197802197802,791.3553113553114,817.5457875457876,804.6520146520147,793.3699633699634,-0.261475,0.163574,0.964783,4.007568,-9.039459,-1.824341,1,1,1,1,1,50.000000
2019-04-22 15:09:29.450,,,,,,,,,,,,,,,,,,,,,,,,,,,,,,,,,,,,,,/muse/elements/blink
2019-04-22 15:09:29.761,0.5663490830514385,0.3421856178772562,1.309305861007861,0.8038942787630723,0.6497182400880042,-0.03899403125561335,0.5485294601348287,0.710188526097846,0.8441767447656726,0.5304877490029949,0.5983558553105892,0.9095851095149925,0.5698683282827688,0.08503594423407781,0.01846398582492743,0.4634761911874295,-0.1500885175822181,-0.3431045505086532,-0.3895585332681603,0.04283207583836946,701.5018315018315,855.4212454212454,832.8571428571429,709.1575091575091,750.6593406593407,-0.262756,0.164551,0.964355,3.215027,-7.267456,-1.181335,1,1,1,1,1,50.000000
2019-04-22 15:09:29.975,,,,,,,,,,,,,,,,,,,,,,,,,,,,,,,,,,,,,,/muse/elements/blink
2019-04-22 15:09:30.363,,,,,,,,,,,,,,,,,,,,,,,,,,,,,,,,,,,,,,/muse/elements/blink
2019-04-22 15:09:30.762,0.5663490830514385,0.3248293653640319,1.400514795636078,0.8038942787630723,0.6497182400880042,0.1466010823059972,0.9858481134339507,0.710188526097846,0.8441767447656726,0.4526689124446273,0.6318022693574974,0.9095851095149925,0.5698683282827688,0.05619834377138052,0.4184016532174198,0.4634761911874295,-0.1500885175822181,-0.241562560561367,0.1172496328360155,0.04283207583836946,823.992673992674,815.934065934066,805.4578754578755,815.1282051282052,840.5128205128206,-0.258911,0.166382,0.964111,3.917847,-9.263763,-1.801910,1,2,1,1,2,55.000000
2019-04-22 15:09:31.762,0.5663490830514385,0.7137774539405181,0.8755707193749934,0.8038942787630723,0.6497182400880042,0.1720142842166612,0.8707096212360739,0.710188526097846,0.8441767447656726,0.1239342166610316,0.5125485156488409,0.9095851095149925,0.5698683282827688,-0.1565919963104402,0.2736030513931128,0.4634761911874295,-0.1500885175822181,-0.4438232650190863,0.03135263795760595,0.04283207583836946,859.4505494505495,805.0549450549451,788.9377289377289,861.4652014652015,725.2747252747253,-0.262207,0.168030,0.962341,3.663635,-8.164673,-2.325287,1,2,1,1,2,55.000000
2019-04-22 15:09:31.776,,,,,,,,,,,,,,,,,,,,,,,,,,,,,,,,,,,,,,/muse/elements/blink
2019-04-22 15:09:32.771,0.5663490830514385,0.3199974599459189,0.9219038838628129,0.8038942787630723,0.6497182400880042,0.5038094187394506,0.1114489823065975,0.710188526097846,0.8441767447656726,0.7389394046315234,0.1319311157066502,0.9095851095149925,0.5698683282827688,0.08938617324024804,0.02250679091663346,0.4634761911874295,-0.1500885175822181,-0.1948189103950538,-0.3363866263275396,0.04283207583836946,784.1025641025641,809.8901098901099,791.3553113553114,782.893772893773,1160.43956043956,-0.206177,0.162048,0.973999,5.218811,-12.389069,1.054230,1,2,1,1,2,55.000000
2019-04-22 15:09:32.983,,,,,,,,,,,,,,,,,,,,,,,,,,,,,,,,,,,,,,/muse/elements/blink
2019-04-22 15:09:33.208,,,,,,,,,,,,,,,,,,,,,,,,,,,,,,,,,,,,,,/muse/elements/blink
2019-04-22 15:09:33.708,,,,,,,,,,,,,,,,,,,,,,,,,,,,,,,,,,,,,,/muse/elements/blink
2019-04-22 15:09:33.762,0.5663490830514385,1.16964928735821,1.219141158722973,0.8038942787630723,0.6497182400880042,0.442665624235643,0.4179700612804044,0.710188526097846,0.8441767447656726,0.7430792252767489,0.5351066647882696,0.9095851095149925,0.5698683282827688,0.5851323054147005,0.4090074536714192,0.4634761911874295,-0.1500885175822181,0.8221901641245142,0.7229652911327471,0.04283207583836946,770,810.2930402930403,828.4249084249085,995.2380952380953,1115.714285714286,-0.903320,0.061890,0.470764,2.878571,24.965057,-4.919739,1,2,1,1,2,55.000000
2019-04-22 15:09:33.893,,,,,,,,,,,,,,,,,,,,,,,,,,,,,,,,,,,,,,/muse/elements/blink
2019-04-22 15:09:34.206,,,,,,,,,,,,,,,,,,,,,,,,,,,,,,,,,,,,,,/muse/elements/blink
2019-04-22 15:09:34.521,,,,,,,,,,,,,,,,,,,,,,,,,,,,,,,,,,,,,,/muse/elements/blink
2019-04-22 15:09:34.762,0.5663490830514385,1.201559109661424,1.342295626594036,0.8038942787630723,0.6497182400880042,0.3667352364592303,0.7259028786557308,0.710188526097846,0.8441767447656726,0.5233732643362249,0.5744266666325338,0.9095851095149925,0.5698683282827688,0.7050286725886913,0.7256859309639526,0.4634761911874295,-0.1500885175822181,0.8738245338467002,0.8694622782781849,0.04283207583836946,876.7765567765568,786.1172161172161,790.1465201465202,777.6556776556777,602.7838827838827,-0.263916,0.175171,0.903320,7.185211,-132.399292,17.615356,1,2,1,1,2,55.000000
2019-04-22 15:09:35.761,0.5663490830514385,1.617644265389322,1.278353576187311,0.8038942787630723,0.6497182400880042,0.1671949013628683,0.5632651381619685,0.710188526097846,0.8441767447656726,0.5048073904135946,0.8756485014966837,0.9095851095149925,0.5698683282827688,0.3251207617851615,0.3923609046731829,0.4634761911874295,-0.1500885175822181,0.2191183010127649,0.187881950061726,0.04283207583836946,829.2307692307693,828.8278388278388,798.6080586080586,797.8021978021978,766.7765567765568,0.433411,0.143372,0.880005,-1.031799,-10.093689,-5.061798,1,2,1,1,2,55.000000
2019-04-22 15:09:36.629,,,,,,,,,,,,,,,,,,,,,,,,,,,,,,,,,,,,,,/muse/elements/blink
2019-04-22 15:09:36.780,1.299257918018704,1.342613582774014,1.225459776342428,1.467862253870792,1.043623520217638,0.3125646673652315,0.5434256175649178,0.6372075131405104,0.7027120446841302,0.5021542111209086,0.8690015339612341,0.9187586464832947,0.689758596315671,0.2363002485667843,0.06509436296113744,0.5458191622155665,0.04716632269474089,-0.1568110025501067,-0.2346648416665516,0.3916712809555701,860.2564102564103,801.8315018315019,778.0586080586081,813.919413919414,1033.516483516484,0.321533,0.125122,0.943359,4.852448,-2.609406,-2.429962,1,1,1,1,1,55.000000
2019-04-22 15:09:37.688,,,,,,,,,,,,,,,,,,,,,,,,,,,,,,,,,,,,,,/muse/elements/blink
2019-04-22 15:09:37.761,1.33628410573334,0.6727522458232374,0.8242691055134928,0.9583694636981323,0.9564152681236202,0.4428318450320855,0.5087237582079552,0.4558260654561759,0.4688600836909282,0.5985025301679766,0.3704056740632861,0.5930646209529309,0.7381058932301339,0.4989747054521821,0.0665252764739612,0.6019569647287086,-0.00860628600240556,-0.02274591573683435,-0.2828108413061866,0.4371240308078734,736.959706959707,778.4615384615385,832.0512820512821,714.3956043956044,743.4065934065934,0.311035,0.135132,0.948059,4.530945,-11.895599,0.037384,1,1,1,1,1,55.000000
2019-04-22 15:09:38.778,1.33628410573334,0.3749768840167716,0.7095012532366991,0.9583694636981323,0.9564152681236202,0.519648679595608,0.6997355005632487,0.4558260654561759,0.4688600836909282,0.8653602180105143,0.447979116561309,0.5930646209529309,0.7381058932301339,0.5180136292015051,-0.1458753555193384,0.6019569647287086,-0.00860628600240556,0.1742738732360831,-0.3166379510092598,0.4371240308078734,802.6373626373627,1299.450549450549,780.0732600732601,801.8315018315019,1278.901098901099,0.310669,0.124634,0.953003,3.327179,7.469330,-2.325287,1,1,1,1,1,55.000000
2019-04-22 15:09:39.555,,,,,,,,,,,,,,,,,,,,,,,,,,,,,,,,,,,,,,/muse/elements/blink
2019-04-22 15:09:39.762,0.8929569339223858,0.5443168281924644,1.611794173591139,0.2287712583305165,0.8216343331107769,0.6344028467227744,0.7752954440302038,0.08357707454037075,0.8015723181026603,0.8460226146776222,0.7441846894562151,0.6902846170292782,0.85352943416988,0.6934085536249697,0.4330485463679567,0.8445841218848402,0.3886736165346621,0.4048115282987,-0.005896064189672843,0.1598338352800311,775.6410256410256,831.6483516483516,772.8205128205128,763.956043956044,899.7435897435897,-0.116272,0.146545,0.986084,5.158997,7.858124,-2.100983,1,1,1,1,1,55.000000
2019-04-22 15:09:40.762,1.058588304304229,0.5443168281924644,0.7697502912387365,1.260853797687658,0.8466902567688283,0.6344028467227744,0.4102442592886437,0.9719977273271785,0.9048530680631148,0.8460226146776222,0.698114109926646,1.181031427602022,0.7401796058258663,0.6934085536249697,0.4630975547052021,0.6568672410911587,0.3841501730677802,0.4048115282987,0.3325189277580789,0.3331872691658903,793.3699633699634,755.0915750915751,789.7435897435897,819.5604395604396,784.5054945054945,-0.529358,0.132812,0.869202,4.246826,15.379791,-2.826233,1,1,1,1,1,55.000000
2019-04-22 15:09:41.190,,,,,,,,,,,,,,,,,,,,,,,,,,,,,,,,,,,,,,/muse/elements/jaw_clench
2019-04-22 15:09:41.535,,,,,,,,,,,,,,,,,,,,,,,,,,,,,,,,,,,,,,/muse/elements/jaw_clench
2019-04-22 15:09:41.762,1.462800931023428,1.230173924695019,1.231333127357441,1.435272892733627,1.137822962697922,0.3469917351693599,0.4232093404945114,1.081188685566652,1.029341947897627,0.8110487940500414,0.6980570382939119,1.194726809527433,0.9923880706534748,1.131925998091381,0.919601523401093,0.6859130175546202,0.5956810930165483,1.115791954303462,1.088368930986715,0.4682973313400265,835.2747252747253,775.6410256410256,821.5750915750916,849.3772893772895,785.7142857142858,-0.650513,0.101990,0.762146,4.321594,-19.424744,0.022430,1,1,1,1,1,55.000000
2019-04-22 15:09:42.755,,,,,,,,,,,,,,,,,,,,,,,,,,,,,,,,,,,,,,/muse/elements/blink
2019-04-22 15:09:42.766,0.7536166768212055,1.068731116593983,1.242419876305874,1.126864726489029,0.6395804554099431,0.3501139632581453,0.315067809382106,0.7369768350578838,0.9761638825890498,0.692122923121023,0.4749100065705216,0.5989385672532622,1.012370723893218,1.17269253646309,0.9950552221389219,0.9702028473406942,1.157024094858944,1.200175966957729,1.273401703053176,0.9325941498715844,667.2527472527473,781.2820512820513,814.7252747252747,638.2417582417582,933.5897435897436,-0.463806,0.112061,0.883911,4.605713,-26.662292,-0.433655,1,1,1,1,1,55.000000
2019-04-22 15:09:42.915,,,,,,,,,,,,,,,,,,,,,,,,,,,,,,,,,,,,,,/muse/elements/blink
2019-04-22 15:09:43.762,0.6898514056713043,0.7158697334133074,0.9088337956406015,1.157818826143744,0.6841703793316505,0.5484214923861362,0.3664808099304194,0.690385814423664,0.9604811375827811,0.4811893791944506,0.3558466706044391,0.5267902076214003,0.9014241967943973,0.4281185121196389,0.5671264307107797,0.8148437352843111,1.113681240331935,0.2239567843231745,0.6240737447116699,0.7218463804306672,809.0842490842491,770.8058608058608,800.6227106227107,790.5494505494506,611.6483516483516,0.042786,0.147095,0.997009,6.527252,-27.507172,1.659851,1,1,1,1,1,55.000000
2019-04-22 15:09:44.041,,,,,,,,,,,,,,,,,,,,,,,,,,,,,,,,,,,,,,/muse/elements/blink
2019-04-22 15:09:44.785,1.328903426212235,0.5737277234299754,0.5036974146704071,1.424581143518469,1.133888213758242,0.3426693915669448,0.2809064948078995,0.9598356355553294,1.115755035102299,0.3291250588839758,0.2724125816830017,1.14780879558449,0.5233994171496875,0.09444296062793504,0.1732221285938112,0.7594101139239058,0.2174279030792073,-0.3114294810763176,-0.1324815249494327,0.06404362535889224,798.6080586080586,779.6703296703297,814.7252747252747,779.6703296703297,1039.157509157509,0.272461,0.142639,0.952820,2.654266,-1.031799,-4.927216,1,1,1,1,1,55.000000
2019-04-22 15:09:45.762,1.194639439055954,0.3334069470487246,0.5619076940192393,1.285242849052229,0.9114911080996495,0.2190296475222731,0.1434001382048695,0.8441982481754406,1.116369692656513,0.3645615596352835,0.366180859345461,1.1502715333126,0.5001056605014803,-0.007173515360813496,0.08854805959126097,0.6480777971180519,0.1079456549145557,-0.4960338993259965,-0.1389084811612102,0.1327327908656489,817.1428571428571,780.0732600732601,797.3992673992674,810.2930402930403,818.7545787545788,-0.122314,0.171936,0.987244,5.831909,13.675079,0.456085,1,1,1,1,1,55.000000
2019-04-22 15:09:45.819,,,,,,,,,,,,,,,,,,,,,,,,,,,,,,,,,,,,,,/muse/elements/blink
2019-04-22 15:09:46.767,1.399394571883644,0.2040167574902934,0.7380977742099717,0.903788557835583,1.182462020838684,-0.01131923047883933,0.2760897624531101,0.6594504865662678,1.430342527433668,0.4247915614951112,0.5615448829603913,0.7533483992932409,0.7988195397003163,0.1874755869624837,0.5178848726360127,0.4521123527503552,0.2310375897335446,0.1551013777803692,0.4789873306067832,0.2177740501991986,808.2783882783883,786.1172161172161,836.4835164835165,809.8901098901099,639.4505494505495,-0.504028,0.149353,0.861694,3.035583,8.254395,-5.136566,1,1,1,1,1,55.000000
2019-04-22 15:09:47.285,,,,,,,,,,,,,,,,,,,,,,,,,,,,,,,,,,,,,,/muse/elements/jaw_clench
2019-04-22 15:09:47.762,1.142861386118871,0.7878967144668225,0.7287423402434426,1.266099428349751,0.6415504291537251,-0.03062784090022716,0.149827723751224,0.2615630851947434,0.9595054985699428,0.6358088393945295,0.4965690572661458,0.6207816800247932,1.033496519977956,1.053572726035434,0.9054607010540516,0.9464143268373498,0.6377856673295118,1.005016989874806,0.7863164634838161,0.905822304054162,840.5128205128206,827.6190476190476,832.0512820512821,862.2710622710623,913.4432234432235,-0.745911,0.097534,0.674805,3.357086,-13.622742,-1.637421,1,1,1,1,1,55.000000
2019-04-22 15:09:48.313,,,,,,,,,,,,,,,,,,,,,,,,,,,,,,,,,,,,,,/muse/elements/blink
2019-04-22 15:09:48.762,1.118009003499168,1.172761331849142,1.509124715547911,1.551465288060147,0.3699214716906776,0.3152114407999992,0.1930047458749565,0.1997248102207891,0.3918082379309755,0.5938651882210342,0.4942691171018561,0.4738008762493485,1.155733458852912,1.235556465011815,0.5869610473234134,1.170184862109178,0.8207791181026787,1.335168442242056,0.841722427772985,1.118928104941076,803.4432234432235,781.6849816849817,775.6410256410256,795.7875457875458,1084.688644688645,-0.491150,0.089355,0.871033,2.998199,-35.679321,-2.317810,1,1,1,1,1,55.000000
2019-04-22 15:09:49.762,0.9978146545925347,0.9405229693985758,1.13405504679425,1.11219577225481,0.2814916313611721,0.03644674737257483,0.1524329349610249,0.5595644907634398,0.710999377909165,0.4762768806360159,0.5104415619381655,0.4719911672768902,0.459012642186744,0.4074803410685034,0.2980894228399169,0.4476485285479447,0.4866684328465288,0.2137437519720098,0.3609280862168779,0.1832528836498837,788.9377289377289,801.025641025641,819.1575091575091,771.2087912087912,861.4652014652015,0.040161,0.114258,0.998962,8.157196,-30.542755,3.117828,1,1,1,1,1,55.000000
2019-04-22 15:09:50.762,0.8850676016328994,0.475407034139191,0.8362614133007868,0.8201623680299454,0.70547791899867,0.071525294719656,0.02206094800643061,0.4551396272070963,0.8688363797296454,0.4750268448196294,0.2466953471448237,0.9670984708024081,0.6035976544067952,-0.03086633436938088,0.09000187942708533,0.4855423390068448,0.2938010996210476,-0.3895937732517123,-0.1718644724163702,0.09788912331979573,787.7289377289378,794.981684981685,803.4432234432235,769.1941391941392,943.6630036630037,0.264282,0.135559,0.968689,3.185120,-5.794525,-2.923431,1,1,1,1,1,55.000000
2019-04-22 15:09:51.762,0.78326313475496,0.3506736852692405,0.9131756052436288,0.669206421613019,0.6157637512104309,0.1283413727347608,0.1563596130839743,0.8152630842129723,0.8754749066711112,0.4917724729042013,0.5777617746696093,0.9584457933411529,0.5763034918969583,-0.0697919405343338,0.4065459425874911,0.5339742564932871,-0.138145370183577,-0.5952117276704703,-0.01164253248995985,0.02604813589005168,795.7875457875458,788.1318681318681,783.6996336996338,801.4285714285714,986.7765567765568,-0.043762,0.143005,0.993774,3.117828,16.306915,-4.082336,1,1,1,1,1,55.000000
2019-04-22 15:09:52.762,0.7499429547591645,0.0976335737957055,0.3103620368830334,0.8208392161412932,0.6001671275127698,-0.2704104468212667,0.09395834831049138,0.8819013200631584,0.8506423231536727,0.1317448964262021,0.3378339403635864,0.6467290410427757,0.75510113045201,0.1312968269722188,0.5244536401626697,0.5882169992008957,0.2584374111969278,-0.1230051341908069,0.276989402108321,0.1347954747551149,803.8461538461539,789.7435897435897,835.6776556776557,819.5604395604396,665.2380952380953,-0.480530,0.119080,0.876526,4.089813,11.611481,-5.435638,1,1,1,1,1,55.000000
2019-04-22 15:09:53.116,,,,,,,,,,,,,,,,,,,,,,,,,,,,,,,,,,,,,,/muse/elements/blink
2019-04-22 15:09:53.534,,,,,,,,,,,,,,,,,,,,,,,,,,,,,,,,,,,,,,/muse/elements/jaw_clench
2019-04-22 15:09:53.762,0.6128589601138102,0.6109867526520715,1.170860023564376,0.6794065415358552,0.7348793776702752,0.08478031838944389,0.5395005386491013,0.8020110585662283,0.7965978296062594,0.4302710390791045,0.3689005269545003,0.6156163422070697,0.7914320161428768,0.8957091089001759,0.8891939852297255,0.7003594586163396,0.6283982601615917,0.9429637687038811,1.016822812324355,0.522896655783008,859.047619047619,849.7802197802198,819.96336996337,916.6666666666667,713.992673992674,-0.760071,0.087646,0.664490,2.362671,-11.850739,-2.400055,1,1,1,1,1,55.000000
2019-04-22 15:09:54.770,0.4578748991848401,1.517038422848164,1.273538678765717,1.493550766830708,0.6203481757266793,0.3402977974438185,0.6234178117605399,0.6929386287507574,0.6593593680500101,0.6407452463208455,0.5256930931614311,0.4740831789440275,0.7676278853180455,1.225196042882525,1.193130556320277,1.063779959483815,0.7107839360812107,1.420947051215531,1.268963059954008,0.9745514495005347,803.040293040293,775.2380952380953,782.0879120879121,795.7875457875458,1006.520146520147,-0.490295,0.086243,0.873474,2.915955,-45.077667,-2.953339,1,1,1,1,1,55.000000
2019-04-22 15:09:55.770,0.8891051488628245,1.225782475922528,0.8964918098294676,1.448000220091063,0.6065205779540083,0.1998421561996803,0.3169539423316456,0.6168377699856031,1.068801448505821,0.5085741369282347,0.420435814802967,0.7335403283371802,0.9618174783683893,0.7934954480776368,0.7090727388764955,0.8860453318260291,0.8656633054546587,0.5904536984006707,0.6242699458104387,0.7711536217166913,788.5347985347986,811.9047619047619,808.6813186813187,764.7619047619048,755.0915750915751,-0.003845,0.107117,1.003906,7.185211,-35.477448,3.940277,1,1,1,1,1,55.000000
2019-04-22 15:09:56.762,0.826495212266553,0.3620363695391517,0.4223842248751788,0.8959779752158908,0.3710047449553338,0.09771020464944694,0.03855122510252565,0.1912519069787856,1.069372583299323,0.23334552485387,0.1299151193433085,0.6463796961223635,0.6676424034919669,0.1339991119235575,0.1131243309958848,0.6100178577139778,0.5025354116437644,-0.1673556952352447,-0.357752547906019,0.4664343758301845,772.8205128205128,806.2637362637363,811.0989010989011,768.3882783882784,660,0.260986,0.117065,0.965271,2.684174,-5.502930,-6.108551,1,1,1,1,1,55.000000
2019-04-22 15:09:57.762,0.7154458713573847,0.3396415146516067,0.5558297497716129,0.7194890297018565,0.145386745602925,-0.00116903129043031,-0.01855034942623281,0.1626299631049998,0.9841586410931552,0.2906148473567959,0.187725305958247,0.6020405409478897,0.5780009330109195,0.03871152791332434,0.1633078180564561,0.511638800204435,0.1511388172891695,-0.3781049717099206,-0.2469961310965934,0.3762208617254278,779.2673992673992,782.4908424908425,793.7728937728938,782.0879120879121,1151.978021978022,-0.074341,0.131531,0.995972,5.712280,8.501129,-0.777588,1,1,1,1,1,55.000000
2019-04-22 15:09:58.762,0.8255797874307976,0.1606345178567238,0.5391998353511411,0.8161082983699027,0.2774567863828343,-0.1117459911248357,-0.2183806110540424,0.1897470851561675,1.010572782389696,0.3119242341972294,0.2846198222293724,0.6591449648824143,0.7876192097564553,0.3789070160683823,0.5780478892659963,0.8421336580740771,0.4218435045430955,0.3431561550101411,0.402076718495966,0.4305022853381333,783.6996336996338,829.6336996336996,830.8424908424909,829.2307692307693,778.4615384615385,-0.465454,0.116211,0.886780,3.618774,8.306732,-2.243042,1,1,1,1,1,55.000000
2019-04-22 15:09:59.181,,,,,,,,,,,,,,,,,,,,,,,,,,,,,,,,,,,,,,/muse/elements/jaw_clench
2019-04-22 15:09:59.767,0.9605283778876621,0.710241327176079,0.7563106457455439,1.254926343469828,0.8063674137134247,0.1304610811272059,0.2529953910822409,0.6718558266053691,1.197104159761466,0.7432381511947499,0.472939960952087,0.8476525713112216,1.119319227685162,1.01925783731925,1.077807943370689,1.064731829075555,1.112443116009695,1.456907716152581,1.286837293422066,1.21685704810996,856.2271062271062,809.4871794871796,808.2783882783883,891.6849816849817,960.989010989011,-0.818359,0.055054,0.638000,2.078552,-11.589050,-0.351410,1,1,1,1,1,55.000000
2019-04-22 15:10:00.510,,,,,,,,,,,,,,,,,,,,,,,,,,,,,,,,,,,,,,/muse/elements/blink
2019-04-22 15:10:00.762,1.454724977632311,1.01163727470653,0.5824654322240471,1.468304847209514,0.5772659661432039,0.2376141375926823,0.07321884938274464,0.8014216298710953,1.032281694595729,0.6771152012405162,0.464162301871867,0.8784795620843204,1.174088991905345,1.153628044032587,1.183707652940699,1.207428272917993,1.474804435775232,1.576679011440024,1.560674768877239,1.517285530762669,810.2930402930403,774.4322344322345,802.6373626373627,821.1721611721612,883.2234432234433,-0.429504,0.064636,0.910339,2.706604,-52.524567,4.635620,1,1,1,1,1,55.000000
2019-04-22 15:10:01.761,1.40510124726606,0.8782849264833279,0.7258812000649418,1.270945795109753,0.6909971350338462,-0.07605700185709056,0.1858269904066329,0.7106460059734869,1.028143571498884,0.3233969316674753,0.359251041320175,0.5458404873380117,1.113728359921949,0.97009989943383,0.9918766504520121,1.315065956933036,1.154399443077205,0.9358480542023867,1.166376271181054,1.346094337739807,789.3406593406594,801.8315018315019,783.6996336996338,844.1391941391942,652.3443223443223,0.093201,0.091858,0.997498,7.073059,-25.219269,1.891632,1,1,1,1,1,55.000000
2019-04-22 15:10:02.762,0.6077600670261444,1.822103579514635,0.7883563890077412,1.093747813200183,0.5322523443822842,0.5278207805543421,-0.08830497009753506,0.5142158441826685,0.8515054946404811,0.5225217035761691,0.2928334121855629,0.8679811959768414,0.9695854727157657,0.6104040932125762,0.7146785960871547,0.7601833754372782,0.7664814638302263,0.5254783658665496,0.7463990017386838,0.5420522529249931,784.1025641025641,842.5274725274726,805.8608058608058,789.3406593406594,760.3296703296703,0.334595,0.125977,0.946655,5.540314,-5.547791,-2.272949,1,1,1,1,1,55.000000
2019-04-22 15:10:03.761,0.6520386184777314,2.31854614551886,1.012716306554664,0.8268248647499751,0.5435925184385556,0.7128814866985939,0.3182313331749058,0.7142538166033195,0.8203872734202109,0.5815787877386699,0.5607174295355888,0.792561932522577,0.7918534950659419,0.3994270322397208,0.2133770090308782,0.7236126809379024,0.3127997241919726,0.04408969501372062,0.1584000577635871,0.4237980616382718,799.4139194139194,791.7582417582418,786.1172161172161,799.8168498168499,859.4505494505495,-0.035583,0.151062,0.999451,3.730927,12.351685,-1.128998,1,1,1,1,1,55.000000
2019-04-22 15:10:04.762,0.6130094988054755,1.56817615878113,1.003360564097719,0.6137101450552667,0.6522977148664725,0.1148280216782624,0.4142591304626222,0.4467146436721183,1.115874387895384,0.6351433257835887,0.5529295136449683,0.7666067113445847,0.6448258008063948,0.2502983668126311,0.4345808800842274,0.7919163974422592,0.3209038692066197,-0.100623216568215,0.2710306720945289,0.5690263171670222,807.0695970695971,800.2197802197802,792.1611721611722,799.0109890109891,609.6336996336996,-0.415039,0.143738,0.902954,4.949646,13.787231,-6.153412,1,1,1,1,1,55.000000
2019-04-22 15:10:05.704,,,,,,,,,,,,,,,,,,,,,,,,,,,,,,,,,,,,,,/muse/elements/jaw_clench
2019-04-22 15:10:05.762,0.4193004405893618,0.7253608810851235,1.259657467012195,1.227460507302064,0.3668979294379824,0.03345361713651102,0.3228071116262481,0.3808731753704419,1.123783554016772,0.5809441314084278,0.6529408168475729,0.8698897476444545,1.06099919329998,0.8465207896909219,0.9263026206134767,1.036918314424736,0.8333098353171243,0.8744270657594088,0.6674254225041365,0.9270576246183193,844.1391941391942,823.992673992674,809.8901098901099,888.8644688644689,694.2490842490843,-0.747681,0.112122,0.686707,5.166473,-11.731110,-0.097198,1,1,1,1,1,55.000000
2019-04-22 15:10:06.762,0.784279315794993,0.771462122732088,1.017683242785783,1.480395875798014,0.6040704870649043,-0.1013621868979857,0.4206290540915631,0.4401762787882646,0.9932487954761058,0.4360153753561402,0.5690183016730714,0.8201530325387536,1.292912361860223,1.218975828945084,1.025313123350638,1.292838698509812,1.070149104956088,1.16909916971721,0.9775810168698902,1.095937302671336,828.4249084249085,788.5347985347986,797.8021978021978,795.3846153846154,921.5018315018315,-0.499146,0.109131,0.865479,1.278534,-31.006317,0.912170,1,1,1,1,1,55.000000
2019-04-22 15:10:07.538,,,,,,,,,,,,,,,,,,,,,,,,,,,,,,,,,,,,,,/muse/elements/blink
2019-04-22 15:10:07.762,0.9015050901133612,0.5073693774980127,1.288384621634587,1.423828261537014,0.7675517664450254,0.1301897543450859,0.4204437434189862,0.6965995866428408,0.998012947959921,0.2194415298398562,0.411258313144907,0.806182714928775,0.9734670083054923,0.5682127500528755,0.7103681975352378,0.9119285434918338,0.7047532019137692,0.5580501964654389,0.6805222351142688,0.6543921337907622,781.6849816849817,797.8021978021978,830.4395604395604,767.5824175824176,698.6813186813187,0.059509,0.121277,0.998535,6.175842,-31.163330,-1.480408,1,1,1,1,1,55.000000
2019-04-22 15:10:08.762,1.029561338259662,0.6941149523529957,1.563597255596234,1.085697935638096,0.8731371433545126,0.4720106718508364,0.4918411635134504,0.7097091301003959,1.036709117314701,0.4536109041805061,0.3509345367488291,0.9712491488876744,0.762100878603949,-0.02689337453415053,0.1779020786490739,0.8244799380854597,0.403274561029787,-0.2343239642536067,-0.0310307616350043,0.372462393765042,815.5311355311355,794.5787545787546,797.3992673992674,766.3736263736264,646.7032967032967,0.303162,0.185242,0.940186,3.147736,-2.572021,-2.564545,1,1,1,1,1,55.000000
2019-04-22 15:10:08.769,,,,,,,,,,,,,,,,,,,,,,,,,,,,,,,,,,,,,,/muse/elements/blink
2019-04-22 15:10:09.768,0.985682302049166,0.4107914818687433,1.095598787834046,1.051625137498876,0.9545427223316996,0.3159505449651913,0.1598326540438619,0.9073997082801496,1.344354443362842,0.5804312692718733,0.6586777222749338,1.390978703670581,0.6685368442639769,-0.02759868119976995,0.2110360183187062,0.7409938285206055,0.2922485421486616,-0.4471192244410833,-0.04873269086587069,0.418394735505254,773.6263736263736,774.4322344322345,802.2344322344322,768.3882783882784,696.6666666666667,0.011597,0.156128,0.993042,2.108459,11.312408,-6.788940,1,1,1,1,1,55.000000
2019-04-22 15:10:10.761,0.6302235753998416,0.4574154131838469,0.777873318127294,0.5704337008920338,0.7317947589150064,0.1906532033081538,0.4074042984778656,0.4792064829207522,1.281266555163417,0.5574524087955672,0.9135163476456363,1.060232934075065,0.8807177698909286,0.1310291130915368,0.4802928738955438,0.8334059494322876,0.2907919222871524,-0.3723307380193154,0.40013371107472,0.4537430352178703,813.1135531135532,809.8901098901099,798.2051282051282,801.8315018315019,713.1868131868132,-0.358459,0.138611,0.923218,5.914154,12.404022,-4.815063,1,1,1,1,1,55.000000
2019-04-22 15:10:11.330,,,,,,,,,,,,,,,,,,,,,,,,,,,,,,,,,,,,,,/muse/elements/jaw_clench
2019-04-22 15:10:11.379,,,,,,,,,,,,,,,,,,,,,,,,,,,,,,,,,,,,,,/muse/elements/blink
2019-04-22 15:10:11.773,0.5040122528721802,0.52581341304149,1.151117036901564,0.717845891812578,0.8117177665342535,0.1603533450240648,0.4916400714377854,0.4351024928118379,1.301884602909452,0.7127948263032063,0.4979597010058896,0.7609686209353649,1.026291903606329,0.7952149662289953,0.8423856153521768,0.9262711641330355,0.5322245663248955,0.7821183368803043,0.7585267181404645,0.5747486313688025,739.7802197802198,855.8241758241759,830.8424908424909,866.3003663003664,1228.131868131868,-0.744568,0.109741,0.642334,4.358978,-4.441223,-2.168274,1,1,1,1,1,55.000000
2019-04-22 15:10:11.806,,,,,,,,,,,,,,,,,,,,,,,,,,,,,,,,,,,,,,/muse/elements/blink
2019-04-22 15:10:12.761,0.3332937600537223,1.391102881436561,1.458166856898367,0.8612407801917203,0.6108925184747908,0.1616920301506252,0.34272334163917,0.6167115241987613,1.093411215785953,0.6659235147479031,0.02075508568908163,0.7510092957762727,1.086991170142702,1.150263844150019,1.054995455753807,1.03840741032983,0.6313829342695116,1.286201646091467,0.9391410440756687,0.6134337740108102,842.1245421245421,771.2087912087912,759.1208791208792,793.3699633699634,927.5457875457876,-0.554688,0.129517,0.839111,3.005676,-31.447449,0.560760,1,1,1,1,1,55.000000
2019-04-22 15:10:13.113,,,,,,,,,,,,,,,,,,,,,,,,,,,,,,,,,,,,,,/muse/elements/blink
2019-04-22 15:10:13.762,0.3332937600537223,1.312396255731536,0.7850807548600883,0.8612407801917203,0.6108925184747908,0.4044496074965954,0.04677197931859983,0.6167115241987613,1.093411215785953,0.3613538112366864,0.4504610173936442,0.7510092957762727,1.086991170142702,0.7693106754378423,0.5944767716277283,1.03840741032983,0.6313829342695116,0.9420412802151824,0.6529186928416487,0.6134337740108102,796.996336996337,780.8791208791209,771.2087912087912,774.4322344322345,769.1941391941392,-0.010010,0.071777,1.002869,6.265564,-32.935333,-2.011261,1,1,1,1,1,55.000000
2019-04-22 15:10:14.761,1.158151984133527,1.088345741059949,0.7016711122957314,0.9312499328364541,0.9753704775389306,0.3852652348300531,0.1927450040406044,0.8528035291321799,1.134282224742172,0.5682700054882517,0.4489250471476823,0.6719334772324239,0.7646066596442526,0.1674587990484818,0.2539411840195311,0.5045945188510307,0.3424640067298788,-0.07106127882353581,0.223389830565472,0.3548839214135012,805.4578754578755,794.981684981685,793.7728937728938,792.5641025641025,1345.787545787546,0.265747,0.110107,0.961670,3.947754,-4.635620,-1.951447,1,1,1,1,1,55.000000
2019-04-22 15:10:15.762,1.117569715039013,1.512391162091129,0.6997796750256028,0.8184244302538118,0.7932969629708612,0.3607553221716818,0.3406592945474076,0.6706170366468317,1.134282224742172,0.6726707530465368,0.4725661239969443,0.7371862642582596,0.6156925607602185,0.2064680921463864,0.5338356067040592,0.5954466586053727,0.2260364686375169,-0.05815984978153595,0.3276168570864815,0.4207713597136329,794.981684981685,780.8791208791209,790.1465201465202,765.9706959706959,870.3296703296703,0.008606,0.094421,0.998047,3.259888,8.957214,-3.087921,1,1,1,1,1,55.000000
2019-04-22 15:10:16.761,0.6895461851123433,0.8956874284959683,0.3941204828482412,0.4828384765470741,0.4207194260954859,-0.1349220139619796,0.1738804276307725,0.4128273314731141,0.9714884160331932,0.08447996040474602,0.3719069396412819,0.6279357509905558,0.5166691111538267,0.1151522552367974,0.608803397825306,0.587423665005533,0.1261727607433472,-0.1781654574872399,0.5562399145463615,0.4498861150499179,793.3699633699634,786.1172161172161,815.5311355311355,804.2490842490843,736.1538461538462,-0.438416,0.069031,0.910889,2.803802,21.353760,-7.461853,1,1,1,1,1,55.000000
2019-04-22 15:10:17.370,,,,,,,,,,,,,,,,,,,,,,,,,,,,,,,,,,,,,,/muse/elements/jaw_clench
2019-04-22 15:10:17.457,,,,,,,,,,,,,,,,,,,,,,,,,,,,,,,,,,,,,,/muse/elements/blink
2019-04-22 15:10:17.762,0.6491441316148807,0.4878329488680598,1.181660328606316,0.5810277502575442,0.5480998183631922,-0.09302938454607669,0.2992164804479927,0.1849798357863164,0.9653579846402772,0.3156009753107188,0.6413757248581082,0.6509123965977722,0.8396693302769499,0.8232804270629838,1.063378894374618,0.7604271020805813,0.618529977092602,0.9205036892458663,1.231681470898508,0.6232100223519115,765.9706959706959,819.5604395604396,849.3772893772895,854.6153846153846,893.6996336996338,-0.764160,0.039673,0.669189,4.059906,-4.912262,-0.777588,1,1,1,1,1,55.000000
2019-04-22 15:10:18.761,0.6809599637205566,0.5664117625129435,1.416848354733311,0.7274913259837402,0.4429720748417753,-0.3774730385139609,0.5790311786321696,-0.1341772595382213,0.7019129408333683,0.531087688848015,0.6410231132020652,0.3509641489849586,1.063061672291012,1.158201078925923,1.262347760895164,0.9741718286231236,0.8872623272356619,1.426242147731765,1.475249715796125,0.7599838746522349,788.1318681318681,772.8205128205128,774.8351648351648,763.5531135531136,702.3076923076924,-0.501282,0.065369,0.872070,2.033691,-37.473755,1.816864,1,1,1,1,1,55.000000
2019-04-22 15:10:19.398,,,,,,,,,,,,,,,,,,,,,,,,,,,,,,,,,,,,,,/muse/elements/blink
2019-04-22 15:10:19.740,,,,,,,,,,,,,,,,,,,,,,,,,,,,,,,,,,,,,,/muse/elements/blink
2019-04-22 15:10:19.762,1.076733732003802,1.321325100417401,0.9994295164052948,1.493896025562294,0.832013432517184,0.2226824668141279,0.1537138471877346,0.8390633430247254,0.9983252128738233,0.5671213138014352,0.4897533918075295,1.296397061459845,1.106230697653271,0.7215818424404509,0.8623904327805436,1.038968826741163,1.007125046743371,0.9058406619000938,0.8288144557792295,0.8506357498847267,816.7399267399268,819.1575091575091,789.7435897435897,793.7728937728938,701.5018315018315,-0.062622,0.076477,1.002014,8.613281,-33.309174,-0.628052,1,1,1,1,1,55.000000
2019-04-22 15:10:20.762,1.201979697436209,1.767744727366739,1.03105875126292,1.292212958016341,0.7995019634762327,0.7270751368293252,0.3271453757181154,0.9228527948083525,0.9253876402326979,0.4570457229628092,0.3832754540490644,1.087928131864449,0.8319777365417088,0.01943534253377965,0.2555533639996535,0.6716806540312573,0.5798228597489971,-0.0619678401706543,0.06690521125409743,0.3024997733790306,815.5311355311355,747.4358974358975,807.8754578754579,801.025641025641,1164.871794871795,0.199219,0.148560,0.980835,1.943970,-5.473022,-3.506622,1,1,1,1,1,55.000000
2019-04-22 15:10:21.762,0.7892391420454014,1.31655917226756,0.5519591287042183,0.4593986349349057,0.4125057402355395,0.3152540813869689,0.03801760332410595,0.1523316540220319,0.7598095315572176,0.08738481191597246,0.3915871725573207,0.5362559038877904,0.6043988227411156,0.0875353247278637,0.07948166730913897,0.5227711922384919,0.05191362460670565,-0.5452743096734091,-0.1591640317375886,0.1886318314928983,799.0109890109891,829.2307692307693,799.4139194139194,800.2197802197802,880,-0.059875,0.119263,0.997498,1.824341,8.927307,-2.968292,1,1,1,1,1,55.000000
2019-04-22 15:10:22.762,0.9380538855150273,1.963703064732232,0.5101743323494092,0.7472068076577204,0.4258379493317117,0.419273949339557,0.1513630306851481,0.6195929533772471,1.096061459543793,0.4148803220521804,0.5914530164526051,1.174629680216203,0.7874392381600214,0.1847273630008061,0.4378415014974068,0.6672056492399933,0.3059023066115778,-0.5330065882860474,0.1326462206612498,0.3313650047483651,808.2783882783883,833.6630036630037,813.1135531135532,796.1904761904763,799.4139194139194,-0.405823,0.120300,0.920654,5.510406,9.600220,-0.463562,1,1,1,1,1,55.000000
2019-04-22 15:10:23.407,,,,,,,,,,,,,,,,,,,,,,,,,,,,,,,,,,,,,,/muse/elements/jaw_clench
2019-04-22 15:10:23.478,,,,,,,,,,,,,,,,,,,,,,,,,,,,,,,,,,,,,,/muse/elements/blink
2019-04-22 15:10:23.761,0.8123771441261015,1.284397957252189,0.9132252203928665,1.007911212564901,0.4842345702375936,-0.3504862496936479,0.2469992521567054,0.5555923427445271,1.111332456067028,0.2584367340139604,0.4819842165641102,1.187952495730478,1.062120695032898,0.8556874044825371,0.7110030435724911,0.8039251438031763,0.8256599609163373,0.6439970440542271,0.7923395011817234,0.7851655359598525,770.8058608058608,778.4615384615385,942.4542124542124,785.7142857142858,1037.948717948718,-0.725342,0.093140,0.707764,3.843079,3.252411,-8.583374,1,1,1,1,1,55.000000
2019-04-22 15:10:23.867,,,,,,,,,,,,,,,,,,,,,,,,,,,,,,,,,,,,,,/muse/elements/blink
2019-04-22 15:10:24.769,0.6534296824541217,0.7188942255258379,1.235359354913703,0.9852040408602272,0.2902792902270317,-0.09072015860141985,0.2812386415248398,-0.04512511254538457,0.710839045751537,0.5089278375709635,0.3793818641871623,0.6042292163364422,1.055191534684062,1.006092887295392,0.8245126559968816,0.845354141013026,0.9914374198830502,1.186070674382844,1.089148067025773,1.014381993592254,829.6336996336996,807.8754578754579,809.8901098901099,806.6666666666667,708.3516483516484,-0.612610,0.066345,0.799744,2.669220,-32.950287,1.278534,1,1,1,1,1,55.000000
2019-04-22 15:10:25.048,,,,,,,,,,,,,,,,,,,,,,,,,,,,,,,,,,,,,,/muse/elements/blink
2019-04-22 15:10:25.761,0.6534296824541217,0.9574924304516073,1.113251708903969,0.9852040408602272,0.2902792902270317,0.1961892575221453,0.1673342519643485,-0.04512511254538457,0.710839045751537,0.6706758467523304,0.5708822012598205,0.6042292163364422,1.055191534684062,0.7536354307970923,0.7402543575462264,0.845354141013026,0.9914374198830502,0.9809365147541041,1.125619594923211,1.014381993592254,797.3992673992674,818.7545787545788,758.7179487179487,762.7472527472528,691.8315018315019,-0.105469,0.086792,0.990173,5.353394,-36.703644,-2.781372,1,1,1,1,1,55.000000
2019-04-22 15:10:26.435,,,,,,,,,,,,,,,,,,,,,,,,,,,,,,,,,,,,,,/muse/elements/blink
2019-04-22 15:10:26.762,0.6534296824541217,1.046198176823742,1.146777708864702,1.091344798893796,0.2902792902270317,0.5469909059652975,0.5707961544807511,0.9298306172541775,0.710839045751537,0.7243369285824863,0.8650078742914892,0.8397562090691095,1.055191534684062,0.4590193818091541,0.6760723192147083,0.8119535737709219,0.9914374198830502,0.4983214068334274,0.754101628247159,0.6646189122648681,843.3333333333334,852.6007326007326,808.6813186813187,803.040293040293,1051.245421245421,0.258850,0.103455,0.970337,2.272949,-11.514282,-1.921539,1,1,1,1,1,55.000000
2019-04-22 15:10:27.775,1.344841398348273,1.721180409890182,1.590481603477393,0.8510591174006601,0.5833305031146451,0.8139162369245759,0.5802691722622177,0.7024053195170663,1.046337253897508,0.7772919182591261,0.9457021782734026,0.6963726155421026,0.9231445623147273,0.6339610366600058,0.6027165126818246,0.8441186499719006,0.2623195279601395,0.4767849861234991,0.4083182490043501,0.6425399411812109,799.8168498168499,803.040293040293,775.2380952380953,807.8754578754579,718.8278388278388,-0.035156,0.110352,0.999207,4.254303,8.889923,0.471039,1,1,1,1,1,55.000000
2019-04-22 15:10:28.761,1.131012791086264,1.832452520042831,1.091124820070768,0.7759171925980117,0.5458975727117505,0.649311900846437,0.03739039120054318,0.3768326587307526,1.106131705085758,0.8416073722382168,0.6754298523448616,1.078565529320221,0.798763783801085,0.6331167503552755,0.7001759785374684,0.8991728776344216,0.5526883494199605,0.434017983973322,0.617167911586327,0.7977987105875614,808.2783882783883,814.3223443223443,816.3369963369963,837.6923076923077,596.3369963369963,-0.432800,0.091797,0.904846,-0.919647,13.368530,-6.572113,1,1,1,1,1,55.000000
2019-04-22 15:10:29.762,0.7354263060560616,0.8695543357009493,0.7082183431411783,0.9443377916318588,0.6498339514914265,0.3788878712322379,-0.03537194838721547,0.5659402337412349,0.9448986176389776,0.7879951429210972,0.4089963988214222,1.035965736214525,1.189219562668411,0.7992492948304015,1.032974584044651,1.072643190403579,1.039150995868755,0.7395554753579934,1.115281277622519,0.9809638219014789,859.8534798534798,856.2271062271062,787.7289377289378,866.3003663003664,526.6300366300367,-0.748779,0.001038,0.703918,0.747681,-1.525269,-0.485992,1,1,1,1,1,55.000000
2019-04-22 15:10:30.075,,,,,,,,,,,,,,,,,,,,,,,,,,,,,,,,,,,,,,/muse/elements/jaw_clench
2019-04-22 15:10:30.380,,,,,,,,,,,,,,,,,,,,,,,,,,,,,,,,,,,,,,/muse/elements/blink
2019-04-22 15:10:30.762,1.045729951220829,0.7211252085971205,0.6761488015694908,1.203705520021747,0.9084452591293692,0.1573088237532137,0.219890774238708,0.7529499236841269,1.326687449962219,0.6250829915794761,0.4295785318217931,1.158950517985097,1.349707166120163,1.115782691261916,1.315504898913782,1.122105761754942,1.0642882375236,0.9776731404975608,1.302982599936633,0.9271583367827767,808.6813186813187,792.967032967033,786.9230769230769,834.0659340659341,647.5091575091575,-0.428406,-0.061951,0.893982,3.805695,-36.068115,-5.615082,1,1,1,1,1,55.000000
2019-04-22 15:10:31.765,1.33521640649794,1.044549246018745,1.32761096849541,1.358311260911896,1.012552943413364,0.5645406528907344,0.7467206666714024,0.9299316584883195,1.392988086661453,0.818815822983032,0.7481442608701973,1.191429701433746,1.110630088010925,0.6798055736626475,0.7083968635124401,0.8948772944077428,0.9164290997803389,0.3641414900226772,0.5443651685524611,0.7676070040664037,817.948717948718,800.2197802197802,805.8608058608058,820.7692307692308,711.5750915750916,0.016174,-0.033203,1.001160,10.153503,-30.176392,-12.329254,1,1,1,1,1,55.000000
2019-04-22 15:10:32.762,1.277154222308735,0.9817471774133614,1.205347038276283,0.9402583440702862,0.8156183869764583,0.3773454649231566,0.6472418399371554,0.7141777362208954,1.369896703995742,0.7745511020546821,0.7065613145905302,1.083414881283013,0.7852847521162888,0.1908201482933042,0.3112156774411118,0.8078908483251847,0.4524835303198564,-0.1249145400684311,0.007648759432744357,0.4827730557697407,810.2930402930403,801.8315018315019,801.8315018315019,767.1794871794872,559.6703296703297,0.271057,0.080078,0.960999,3.985138,-1.256104,-1.629944,1,1,1,1,1,55.000000
2019-04-22 15:10:33.762,1.022633686806835,0.3639970396762309,0.8554746738073216,0.7150531257253804,0.6267084270636067,0.02314787587657725,0.4311411367680322,0.451689082026361,1.260075291453238,0.1734516751635052,0.3867980571404517,0.9150710693777815,0.6414435108135219,-0.04273971207370171,0.1465652302055873,0.5752202294784127,-0.03125724052966999,-0.2608903379067903,-0.08623901516491947,0.3502674417244993,787.7289377289378,789.7435897435897,781.2820512820513,783.2967032967033,719.2307692307693,0.058899,0.084473,1.000244,4.590759,5.114136,0.964508,1,1,1,1,1,55.000000
2019-04-22 15:10:34.761,0.522718354992071,0.5249490105065251,0.566503023889142,0.8542096118895086,0.5160358336759095,0.4046247098662084,0.2366844876963795,0.5888550447193794,0.6526691547733074,0.2405090078031886,0.4444173186735293,0.7052623927053316,0.6806781764035331,0.02915578317192484,0.402159344202311,0.6631733237512245,0.3675548469362596,-0.1700160413404286,0.3877356718983291,0.7181598433721159,794.1758241758242,810.6959706959707,796.1904761904763,788.5347985347986,840.5128205128206,-0.336487,0.080383,0.945740,2.609406,19.379883,-3.858032,1,1,1,1,1,55.000000
2019-04-22 15:10:35.052,,,,,,,,,,,,,,,,,,,,,,,,,,,,,,,,,,,,,,/muse/elements/jaw_clench
2019-04-22 15:10:35.142,,,,,,,,,,,,,,,,,,,,,,,,,,,,,,,,,,,,,,/muse/elements/blink
2019-04-22 15:10:35.644,,,,,,,,,,,,,,,,,,,,,,,,,,,,,,,,,,,,,,/muse/elements/blink
2019-04-22 15:10:35.769,0.4671968985460315,0.795610249760027,0.8933144733119042,1.002200644261797,0.5924920330931539,0.5012597686828808,-0.17023263929072,0.4237835129265933,0.6065892680803877,0.7985841472568409,0.3588806135858746,0.7744833749558738,0.6498703085033339,0.9547105559054755,0.694914347562551,0.7407956473410796,0.6246617434327028,0.8829832981991488,0.7573067821745451,0.7167330695665008,836.8864468864469,819.1575091575091,806.6666666666667,957.3626373626374,1078.644688644689,-0.783936,0.015991,0.653320,5.809479,-9.136658,-4.777679,1,1,1,1,1,55.000000
2019-04-22 15:10:36.773,0.2590430612770686,0.9931598441388326,0.8557032478712031,0.9386327243644536,0.6454075631100081,0.3243503701018726,-0.1754944273363401,0.184888049923895,0.6065892680803877,0.7869763684043164,0.211596904517459,0.6856150252581619,0.5839519794473842,1.186001240018835,1.33137540787056,0.7699785026067324,0.6649119757861862,1.20571457864645,1.353778068701717,0.505647062757164,788.1318681318681,784.9084249084249,778.0586080586081,777.2527472527473,856.2271062271062,-0.384094,0.042847,0.932373,3.648682,-33.249359,0.186920,1,1,1,1,1,55.000000
2019-04-22 15:10:37.761,1.247695982464518,0.8245936234573583,0.6525538030082104,1.70703107839426,0.6872756780914062,-0.1401603935900125,-0.01191085952734875,0.4473573213026901,0.9995269708728133,0.3486210929764241,0.3316270376429892,0.8791114766083526,0.9427013277828911,0.7483804998461053,0.952207358500899,0.7158399354356603,0.9490301271104661,0.4216371473598273,0.8961124493383769,0.3421525562483698,778.8644688644689,802.2344322344322,812.7106227106227,784.1025641025641,581.4285714285714,0.043396,0.070984,1.002319,6.983337,-26.026764,1.091614,1,1,1,1,1,55.000000
2019-04-22 15:10:38.761,0.7242085592190508,0.3221229380019802,0.2669167578273036,0.6875405064967846,0.6193578112722488,0.04846025148456556,-0.08414619506592684,0.367966543973322,0.9392421682271755,0.2227056760802982,0.1582243058497129,0.7977659321632492,0.8474623369141526,0.01437008255043601,0.2176578816577,0.7294063483029581,0.4261752457027264,-0.4786698777344036,-0.09568877503607252,0.2821834283916174,737.3626373626374,782.4908424908425,831.2454212454213,748.2417582417582,954.9450549450549,0.318665,0.090088,0.948975,3.192596,-6.310425,0.343933,1,1,1,1,1,55.000000
2019-04-22 15:10:39.302,,,,,,,,,,,,,,,,,,,,,,,,,,,,,,,,,,,,,,/muse/elements/blink
2019-04-22 15:10:39.782,1.016933239062282,1.447398386911583,1.616215909999708,0.9511429253836752,0.5431288057442017,0.776238982634232,1.105626407093542,0.2951333667887761,0.7098484575823119,0.5499380566294811,0.8513478850366781,0.7010756080687607,0.7170612590312648,0.2189310765268745,0.1292752413182733,0.6564763017380811,0.4124703430593701,0.2293222311990942,-0.1404324714679565,0.3583220037192579,732.9304029304029,776.0439560439561,799.8168498168499,716.4102564102565,665.6410256410256,-0.037476,0.123535,0.994263,8.164673,26.826782,-15.992889,1,1,1,1,1,55.000000
2019-04-22 15:10:39.908,,,,,,,,,,,,,,,,,,,,,,,,,,,,,,,,,,,,,,/muse/elements/blink
2019-04-22 15:10:40.534,,,,,,,,,,,,,,,,,,,,,,,,,,,,,,,,,,,,,,/muse/elements/blink
2019-04-22 15:10:40.761,1.069910343350919,1.579176321899736,1.817183223812043,1.122763909022711,0.4131121310310785,0.7407733076057043,1.21167505442874,0.2500968751482173,0.5829605417493579,0.6863517602020585,1.046284262251815,0.3574907560420368,0.699050890297898,1.087813107458546,0.6493162807916102,0.5733184783533698,0.4049185544563437,1.262092333130871,0.6836998070359595,0.4716311394622467,828.4249084249085,780.8791208791209,786.5201465201466,835.2747252747253,828.8278388278388,-0.314819,0.120056,0.941772,8.807678,-13.159180,-6.886139,1,1,1,1,1,55.000000
2019-04-22 15:10:41.761,1.069910343350919,1.416027567237135,1.359365728001828,1.122763909022711,0.4131121310310785,0.5596570604396287,0.980841649407125,0.2500968751482173,0.5829605417493579,0.7281350270753943,0.9970555817749366,0.3574907560420368,0.699050890297898,1.208303880819562,0.750777978794033,0.5733184783533698,0.4049185544563437,1.249490926821724,0.7593887555938668,0.4716311394622467,766.7765567765568,819.1575091575091,798.6080586080586,794.1758241758242,887.2527472527473,-0.192444,0.139709,0.980774,2.243042,2.198181,34.333496,1,2,1,1,2,55.000000
2019-04-22 15:10:42.274,,,,,,,,,,,,,,,,,,,,,,,,,,,,,,,,,,,,,,/muse/elements/blink
2019-04-22 15:10:42.762,1.610091566247973,1.042694927441673,1.412036432814911,1.387434481083031,0.9236003765113208,0.582027546311861,1.039098343123188,1.01426248569682,1.061941110119744,0.5936331518026055,0.7304652894626705,1.145846651178882,1.134026377418973,0.8984085777418079,0.7614444071966842,1.210758400722882,0.8982173259060987,1.038918375800353,0.712737955198851,0.9812082694753061,785.3113553113553,807.4725274725275,806.2637362637363,774.8351648351648,669.6703296703297,-0.186401,0.175659,0.973083,5.906677,-1.988831,-4.269257,1,1,1,1,1,55.000000
2019-04-22 15:10:42.978,,,,,,,,,,,,,,,,,,,,,,,,,,,,,,,,,,,,,,/muse/elements/blink
2019-04-22 15:10:43.142,,,,,,,,,,,,,,,,,,,,,,,,,,,,,,,,,,,,,,/muse/elements/blink
2019-04-22 15:10:43.344,,,,,,,,,,,,,,,,,,,,,,,,,,,,,,,,,,,,,,/muse/elements/jaw_clench
2019-04-22 15:10:43.660,,,,,,,,,,,,,,,,,,,,,,,,,,,,,,,,,,,,,,/muse/elements/blink
2019-04-22 15:10:43.762,1.477606736877565,1.194769684179899,1.369589948019157,1.42599119650826,0.9955481137967326,0.5293960345995247,0.9465928624636426,1.021771834042302,0.9685157253229316,0.8162402530330691,0.8487379212323396,1.143034509345134,1.153052946191111,1.055843829161394,0.9033353066734774,1.181397105751938,0.9614597778480138,1.290504645822642,1.02474351533831,1.023333684790047,796.996336996337,809.4871794871796,768.3882783882784,859.047619047619,759.1208791208792,-0.248352,0.166443,0.968384,3.768311,-12.239532,-1.757050,1,1,1,1,1,55.000000
2019-04-22 15:10:44.567,,,,,,,,,,,,,,,,,,,,,,,,,,,,,,,,,,,,,,/muse/elements/blink
2019-04-22 15:10:44.762,1.441850992395936,1.612716435001182,1.618764831183925,1.435386037877808,1.047697614479577,0.6399907490187062,1.131538556251998,1.034251760617212,0.9685157253229316,0.8787842507948259,0.7922619766112474,1.084582751474919,1.157133510354606,1.179207847375716,0.9458174939863997,1.034422989841299,0.9799473067543625,1.165102964318896,1.019945777252913,0.9969179407125346,854.2124542124542,790.952380952381,777.2527472527473,855.8241758241759,913.040293040293,-0.257324,0.157959,0.959473,5.203857,-9.144135,0.127106,1,1,1,1,1,55.000000
2019-04-22 15:10:44.877,,,,,,,,,,,,,,,,,,,,,,,,,,,,,,,,,,,,,,/muse/elements/blink
2019-04-22 15:10:45.761,1.441850992395936,1.199819949282208,1.34302255279933,1.435386037877808,1.047697614479577,0.4117052478283563,0.9051348424844433,1.034251760617212,0.9685157253229316,0.8000477139480286,0.7857491080733542,1.084582751474919,1.157133510354606,1.21850734609147,0.9011101142975576,1.034422989841299,0.9799473067543625,1.032247978177321,0.7565381930314253,0.9969179407125346,807.4725274725275,812.7106227106227,805.8608058608058,811.5018315018315,619.3040293040293,-0.251831,0.159546,0.963257,3.977661,-6.945953,-0.927124,1,2,1,1,2,55.000000
2019-04-22 15:10:45.783,,,,,,,,,,,,,,,,,,,,,,,,,,,,,,,,,,,,,,/muse/elements/blink
2019-04-22 15:10:46.302,,,,,,,,,,,,,,,,,,,,,,,,,,,,,,,,,,,,,,/muse/elements/blink
2019-04-22 15:10:46.711,,,,,,,,,,,,,,,,,,,,,,,,,,,,,,,,,,,,,,/muse/elements/blink
2019-04-22 15:10:46.761,1.441850992395936,0.6232095578824464,1.08654029771659,1.435386037877808,1.047697614479577,0.4309803825430973,0.6288205561395833,1.034251760617212,0.9685157253229316,0.4923036950084836,0.7731508874290517,1.084582751474919,1.157133510354606,1.145835765187119,0.9425209520107544,1.034422989841299,0.9799473067543625,0.8793402432334041,0.7635065042114112,0.9969179407125346,801.4285714285714,805.4578754578755,816.3369963369963,808.2783882783883,734.1391941391942,-0.244507,0.144470,0.971741,3.529053,-9.854431,1.278534,1,2,1,1,2,55.000000
2019-04-22 15:10:47.322,,,,,,,,,,,,,,,,,,,,,,,,,,,,,,,,,,,,,,/muse/elements/blink
2019-04-22 15:10:47.764,1.441850992395936,0.768088323596839,1.332658077670584,1.435386037877808,1.047697614479577,0.1657053016222867,1.050322058154483,1.034251760617212,0.9685157253229316,0.3474799060716522,0.8132608309084325,1.084582751474919,1.157133510354606,1.003989732319891,0.7649679005244178,1.034422989841299,0.9799473067543625,0.7549071093889865,0.5275190600766411,0.9969179407125346,808.6813186813187,807.8754578754579,795.3846153846154,782.4908424908425,853.8095238095239,-0.182861,0.136719,0.984314,6.400146,-9.435730,-0.598145,1,2,1,1,2,55.000000
2019-04-22 15:10:48.224,,,,,,,,,,,,,,,,,,,,,,,,,,,,,,,,,,,,,,/muse/elements/blink
2019-04-22 15:10:48.761,1.441850992395936,0.5979588638159634,1.491587119518018,1.435386037877808,1.047697614479577,0.3500674693153064,1.273044522078962,1.034251760617212,0.9685157253229316,0.368223420908501,0.8381825933763186,1.084582751474919,1.157133510354606,0.9006618634652158,0.6152837610435182,1.034422989841299,0.9799473067543625,0.7483364112550782,0.5142036659255503,0.9969179407125346,808.2783882783883,771.6117216117216,796.996336996337,801.8315018315019,799.4139194139194,-0.349731,0.160339,0.935913,4.598236,0.485992,3.985138,1,2,1,1,2,55.000000
2019-04-22 15:10:49.761,1.172727405900478,0.5754532832004426,1.270057228573895,1.134147675965621,0.6637240740092861,0.3770132777438537,1.109163824079451,0.6668844627127294,1.138071744890188,0.3125864587222424,0.9974371906353126,1.102212390764665,1.212252055498562,1.066913107741122,0.8635590453321035,1.166608925737101,0.8766490479395177,0.9577767158828187,0.8889569170875593,0.8986247394268735,796.5934065934066,823.1868131868132,823.1868131868132,819.96336996337,844.5421245421246,-0.363831,0.155029,0.922729,-1.091614,-7.760925,-0.418701,1,2,1,1,2,55.000000
2019-04-22 15:10:50.112,,,,,,,,,,,,,,,,,,,,,,,,,,,,,,,,,,,,,,/muse/elements/blink
2019-04-22 15:10:50.771,1.134460240895989,0.5015182192700738,0.9422885786005296,1.178398917115255,0.6845344565361,0.05386963933986386,0.8919848404740828,0.7280491966469732,1.208385949853287,0.3627025785713411,0.9710274493439274,1.166816052554739,1.181860620212278,1.109523282638977,1.068277267273221,1.126001545756358,0.9484505567919227,0.9443221797547259,0.8859482006990602,0.9410475384723521,804.6520146520147,815.934065934066,793.7728937728938,803.4432234432235,880.8058608058608,-0.371277,0.136475,0.933716,4.388885,-7.708588,-4.680481,1,1,1,1,1,55.000000
2019-04-22 15:10:51.762,1.115876566225173,1.014687666896451,1.035527598481519,0.9829785686388426,0.8466230314698,0.4903719067635124,0.8513293185175691,0.3036635658256379,0.9762045013396801,0.6086366006860442,0.7543732011055284,0.8144514108045348,1.090305537538581,1.040299968010778,1.014953286937142,0.8961748922963879,0.6803707886056268,0.8096530981614877,0.8286118475991716,0.78038601336463,819.1575091575091,789.3406593406594,760.7326007326008,828.021978021978,763.5531135531136,-0.364014,0.122742,0.928833,5.203857,-9.039459,-5.211334,1,1,1,1,1,55.000000
2019-04-22 15:10:51.799,,,,,,,,,,,,,,,,,,,,,,,,,,,,,,,,,,,,,,/muse/elements/blink
2019-04-22 15:10:52.234,,,,,,,,,,,,,,,,,,,,,,,,,,,,,,,,,,,,,,/muse/elements/blink
2019-04-22 15:10:52.763,1.167204537971279,1.315350150450609,1.30829510196195,1.011968928269636,0.8942390902353116,0.7665399465244739,0.8816133499230095,0.3103519037513746,0.9636450337338367,0.7359907544775336,0.9639091043994757,0.7891696558276607,1.110451232966546,0.8805446625683152,0.8373009489080259,0.8950065733557104,0.6740186408648842,0.7986667882168692,0.8349850048089194,0.7816394711908272,813.919413919414,800.2197802197802,810.2930402930403,767.5824175824176,619.3040293040293,-0.267212,0.167969,0.958435,-0.074768,-5.682373,0.515900,1,1,1,1,1,50.000000
2019-04-22 15:10:53.082,,,,,,,,,,,,,,,,,,,,,,,,,,,,,,,,,,,,,,/muse/elements/blink
2019-04-22 15:10:53.401,,,,,,,,,,,,,,,,,,,,,,,,,,,,,,,,,,,,,,/muse/elements/blink
2019-04-22 15:10:53.770,1.167204537971279,1.06314592875374,1.206732013972308,1.011968928269636,0.8942390902353116,0.5140603764105811,1.034734324352705,0.3103519037513746,0.9636450337338367,0.5882079870815191,1.078286540067159,0.7891696558276607,1.110451232966546,0.8185897098353286,0.8216644975698368,0.8950065733557104,0.6740186408648842,0.8119599713238782,0.7740693016947068,0.7816394711908272,789.3406593406594,803.4432234432235,759.1208791208792,797.8021978021978,640.6593406593407,-0.286499,0.157227,0.960083,4.628143,-10.437622,-1.009369,1,1,1,1,1,50.000000
2019-04-22 15:10:54.653,,,,,,,,,,,,,,,,,,,,,,,,,,,,,,,,,,,,,,/muse/elements/blink
2019-04-22 15:10:54.761,1.167204537971279,0.9182397480685792,1.313044854595249,1.011968928269636,0.8942390902353116,0.4597076273838392,0.8998723680107165,0.3103519037513746,0.9636450337338367,0.6370330401189453,0.9461275140696143,0.7891696558276607,1.110451232966546,0.6651854963473646,0.8307532994827805,0.8950065733557104,0.6740186408648842,0.7435361487254303,0.640172321231699,0.7816394711908272,748.2417582417582,782.4908424908425,818.3516483516484,790.1465201465202,718.021978021978,-0.308472,0.171265,0.948120,1.480408,-0.927124,4.919739,1,2,1,1,2,50.000000
2019-04-22 15:10:55.771,1.167204537971279,0.7187616373785486,1.116766919787986,1.011968928269636,0.8942390902353116,0.5687834388264373,0.7757585279520988,0.3103519037513746,0.9636450337338367,0.8143911981923377,0.9848779507163667,0.7891696558276607,1.110451232966546,0.5613833547096163,0.613428390826649,0.8950065733557104,0.6740186408648842,0.378262441803026,0.4361608394075743,0.7816394711908272,758.7179487179487,799.8168498168499,871.5384615384615,792.1611721611722,1065.347985347985,-0.289124,0.135925,0.962097,4.344025,-8.291779,-2.093506,1,2,1,1,2,50.000000
2019-04-22 15:10:55.965,,,,,,,,,,,,,,,,,,,,,,,,,,,,,,,,,,,,,,/muse/elements/blink
2019-04-22 15:10:56.646,,,,,,,,,,,,,,,,,,,,,,,,,,,,,,,,,,,,,,/muse/elements/blink
2019-04-22 15:10:56.761,1.167204537971279,1.1009942537484,0.9332380577858602,1.011968928269636,0.8942390902353116,0.539226625356339,0.6897069462328254,0.3103519037513746,0.9636450337338367,0.7206125168291393,0.920196112543192,0.7891696558276607,1.110451232966546,0.6685271948143032,0.592035468141901,0.8950065733557104,0.6740186408648842,0.7163578735520951,0.5140849731301413,0.7816394711908272,796.5934065934066,803.040293040293,794.5787545787546,801.4285714285714,821.5750915750916,-0.300232,0.150574,0.955383,6.175842,-5.921631,1.951447,1,2,1,1,2,50.000000
2019-04-22 15:10:57.762,1.167204537971279,1.069175792017996,1.20554826098909,1.011968928269636,0.8942390902353116,0.577079926737871,0.7812304571507285,0.3103519037513746,0.9636450337338367,0.4016469014668142,0.9603972922165267,0.7891696558276607,1.110451232966546,0.4638807603084485,0.3278272055514271,0.8950065733557104,0.6740186408648842,0.595007088701313,0.1771042565679701,0.7816394711908272,795.3846153846154,795.7875457875458,806.6666666666667,809.8901098901099,760.3296703296703,-0.305847,0.174988,0.944336,4.441223,-7.274933,-1.600037,1,2,1,1,2,50.000000
2019-04-22 15:10:58.215,,,,,,,,,,,,,,,,,,,,,,,,,,,,,,,,,,,,,,/muse/elements/blink
2019-04-22 15:10:58.761,1.167204537971279,1.21403803543034,1.623196084548064,0.59095424261299,0.8942390902353116,0.381274354083189,1.046203409911046,1.136336581374615,0.9636450337338367,0.7042045102217711,0.8881163144477791,1.178969988588868,1.110451232966546,0.788383239666907,0.4852268827990349,0.7007525968528835,0.6740186408648842,0.5078116728201203,0.3361541041338572,0.2163500553324978,815.5311355311355,809.4871794871796,803.4432234432235,827.6190476190476,772.4175824175825,-0.249451,0.198547,0.960083,6.205750,-13.562927,4.560852,1,1,1,1,1,50.000000
2019-04-22 15:10:59.348,,,,,,,,,,,,,,,,,,,,,,,,,,,,,,,,,,,,,,/muse/elements/blink
2019-04-22 15:10:59.762,1.167204537971279,1.316326673489697,1.547596619077924,0.59095424261299,0.8942390902353116,0.5056706165772084,0.9907971661036823,1.136336581374615,0.9636450337338367,0.5804544770177577,0.8989921005125943,1.178969988588868,1.110451232966546,1.02837051218507,0.8596622575687052,0.7007525968528835,0.6740186408648842,0.9818761215006797,0.6984176448144388,0.2163500553324978,837.6923076923077,824.3956043956044,832.8571428571429,903.3699633699634,733.7362637362637,0.332520,0.229004,0.927856,15.312500,-18.871460,18.146210,1,1,1,1,1,50.000000
2019-04-22 15:11:00.761,1.167204537971279,1.191694788249902,1.073537600610235,0.59095424261299,0.8942390902353116,0.6546786514219328,0.9196718391679302,1.136336581374615,0.9636450337338367,0.6906471329558331,0.9018983776007263,1.178969988588868,1.110451232966546,0.6006049974283815,0.9458926478415481,0.7007525968528835,0.6740186408648842,0.8363029349930432,0.7260849300089047,0.2163500553324978,611.6483516483516,791.3553113553114,772.4175824175825,638.2417582417582,699.4871794871796,0.430298,0.271301,0.891052,-5.420685,4.830017,-8.074951,1,2,1,1,2,50.000000
2019-04-22 15:11:00.918,,,,,,,,,,,,,,,,,,,,,,,,,,,,,,,,,,,,,,/muse/elements/blink
2019-04-22 15:11:01.248,,,,,,,,,,,,,,,,,,,,,,,,,,,,,,,,,,,,,,/muse/elements/blink
2019-04-22 15:11:01.452,,,,,,,,,,,,,,,,,,,,,,,,,,,,,,,,,,,,,,/muse/elements/jaw_clench
2019-04-22 15:11:01.762,1.167204537971279,0.9859680235681028,1.140580595816737,0.59095424261299,0.8942390902353116,0.6065067830269377,1.091029342615071,1.136336581374615,0.9636450337338367,0.6253785402039226,0.8164501292377793,1.178969988588868,1.110451232966546,0.6221631226161989,0.8245726009686005,0.7007525968528835,0.6740186408648842,0.9348941269427589,0.7505585290308798,0.2163500553324978,829.2307692307693,815.1282051282052,806.2637362637363,780.0732600732601,494.7985347985348,0.003479,0.239014,0.972351,-6.362762,-15.559235,-74.409180,1,2,1,1,2,50.000000
2019-04-22 15:11:02.771,1.167204537971279,1.013891239791759,1.089544164138224,1.598149344709592,0.8942390902353116,0.5805863998125761,0.8687925418657145,1.199030397953434,0.9636450337338367,0.5883298293258783,0.5723593369099463,1.092885707553996,1.110451232966546,0.5723636054948964,1.041349594974781,0.901711878315122,0.6740186408648842,0.8885222843950502,1.131919742755304,1.107278303999643,753.4798534798535,791.7582417582418,799.4139194139194,784.1025641025641,856.6300366300367,-0.026917,0.128296,0.989014,1.472931,-2.497253,-5.054321,1,1,1,1,1,55.000000
2019-04-22 15:11:02.873,,,,,,,,,,,,,,,,,,,,,,,,,,,,,,,,,,,,,,/muse/elements/blink
2019-04-22 15:11:03.582,,,,,,,,,,,,,,,,,,,,,,,,,,,,,,,,,,,,,,/muse/elements/blink
2019-04-22 15:11:03.761,1.167204537971279,1.028757588193132,1.040713588895972,1.593457776610939,0.8942390902353116,0.9133028662432938,0.6404990162413152,1.206396419575181,0.9636450337338367,0.9198371639423426,0.532860021803694,1.20027064871098,1.110451232966546,1.155113608980799,0.4194092215250026,0.923550590309041,0.6740186408648842,0.8842551937551418,0.3517803677817715,1.061110269988078,788.5347985347986,789.7435897435897,824.7985347985348,827.6190476190476,886.8498168498169,-0.375427,0.059937,0.939514,1.487885,3.723450,26.198730,1,1,1,1,1,55.000000
2019-04-22 15:11:04.764,1.167204537971279,1.282568412983599,1.485032578549742,1.702368136458651,0.8942390902353116,0.7513015082189507,1.071383141347305,1.289184181117746,0.9636450337338367,1.054884128596342,0.8943233166348561,1.20027064871098,1.110451232966546,1.017030226220056,0.5387410329165117,0.9049474524738014,0.6740186408648842,0.7548523007722701,0.4769861332738059,1.055275104510373,701.9047619047619,818.7545787545788,760.3296703296703,701.5018315018315,1172.527472527473,-0.379517,0.125244,0.926636,3.977661,-8.388977,-0.934601,1,1,1,1,1,55.000000
2019-04-22 15:11:04.986,,,,,,,,,,,,,,,,,,,,,,,,,,,,,,,,,,,,,,/muse/elements/blink
2019-04-22 15:11:05.282,,,,,,,,,,,,,,,,,,,,,,,,,,,,,,,,,,,,,,/muse/elements/blink
2019-04-22 15:11:05.762,1.167204537971279,0.9566164767277553,0.9316386184509325,1.702368136458651,0.8942390902353116,0.7207587528494858,0.6148060322285609,1.289184181117746,0.9636450337338367,0.6140623672317567,0.9350998091316348,1.20027064871098,1.110451232966546,0.8596244213747295,0.7330208156666201,0.9049474524738014,0.6740186408648842,0.6966426555884692,0.8088285692925886,1.055275104510373,796.996336996337,785.3113553113553,815.1282051282052,799.8168498168499,752.2710622710623,-0.378174,0.133911,0.926331,7.566528,-10.519867,-1.644897,1,2,1,1,2,55.000000
2019-04-22 15:11:06.762,1.40618841808972,0.9292382227825876,1.399847412837657,1.098253737686164,0.7982931587870741,0.8142079810402391,1.05232671984187,0.8975653846081031,1.082574011345209,0.5744937003745878,0.930085632429473,0.8562002370134459,0.6886644514844718,0.6776145095230088,0.625506580347246,0.6265184375586217,0.3794687901870398,0.3701782050442015,0.8305523053358458,0.1509071061117162,785.7142857142858,790.5494505494506,800.6227106227107,789.3406593406594,797.8021978021978,-0.355286,0.159485,0.935425,5.435638,-9.443207,-3.110352,1,2,1,1,2,55.000000
2019-04-22 15:11:07.428,,,,,,,,,,,,,,,,,,,,,,,,,,,,,,,,,,,,,,/muse/elements/blink
